#  E (eV)   dos(E)     Int dos(E) EFermi =   9.527 eV
  -9.730  0.3843E-05  0.1921E-07
  -9.725  0.4858E-05  0.4350E-07
  -9.720  0.6126E-05  0.7413E-07
  -9.715  0.7705E-05  0.1127E-06
  -9.710  0.9668E-05  0.1610E-06
  -9.705  0.1210E-04  0.2215E-06
  -9.700  0.1511E-04  0.2971E-06
  -9.695  0.1882E-04  0.3911E-06
  -9.690  0.2338E-04  0.5080E-06
  -9.685  0.2897E-04  0.6529E-06
  -9.680  0.3582E-04  0.8320E-06
  -9.675  0.4417E-04  0.1053E-05
  -9.670  0.5434E-04  0.1325E-05
  -9.665  0.6669E-04  0.1658E-05
  -9.660  0.8164E-04  0.2066E-05
  -9.655  0.9970E-04  0.2565E-05
  -9.650  0.1215E-03  0.3172E-05
  -9.645  0.1476E-03  0.3910E-05
  -9.640  0.1790E-03  0.4805E-05
  -9.635  0.2164E-03  0.5887E-05
  -9.630  0.2611E-03  0.7193E-05
  -9.625  0.3143E-03  0.8764E-05
  -9.620  0.3773E-03  0.1065E-04
  -9.615  0.4520E-03  0.1291E-04
  -9.610  0.5401E-03  0.1561E-04
  -9.605  0.6438E-03  0.1883E-04
  -9.600  0.7657E-03  0.2266E-04
  -9.595  0.9084E-03  0.2720E-04
  -9.590  0.1075E-02  0.3258E-04
  -9.585  0.1270E-02  0.3892E-04
  -9.580  0.1496E-02  0.4640E-04
  -9.575  0.1758E-02  0.5519E-04
  -9.570  0.2061E-02  0.6550E-04
  -9.565  0.2411E-02  0.7755E-04
  -9.560  0.2814E-02  0.9162E-04
  -9.555  0.3276E-02  0.1080E-03
  -9.550  0.3805E-02  0.1270E-03
  -9.545  0.4410E-02  0.1491E-03
  -9.540  0.5099E-02  0.1746E-03
  -9.535  0.5883E-02  0.2040E-03
  -9.530  0.6771E-02  0.2378E-03
  -9.525  0.7775E-02  0.2767E-03
  -9.520  0.8908E-02  0.3213E-03
  -9.515  0.1018E-01  0.3722E-03
  -9.510  0.1162E-01  0.4303E-03
  -9.505  0.1322E-01  0.4963E-03
  -9.500  0.1501E-01  0.5714E-03
  -9.495  0.1700E-01  0.6564E-03
  -9.490  0.1922E-01  0.7525E-03
  -9.485  0.2168E-01  0.8609E-03
  -9.480  0.2440E-01  0.9829E-03
  -9.475  0.2740E-01  0.1120E-02
  -9.470  0.3071E-01  0.1273E-02
  -9.465  0.3434E-01  0.1445E-02
  -9.460  0.3831E-01  0.1637E-02
  -9.455  0.4265E-01  0.1850E-02
  -9.450  0.4739E-01  0.2087E-02
  -9.445  0.5253E-01  0.2350E-02
  -9.440  0.5812E-01  0.2640E-02
  -9.435  0.6417E-01  0.2961E-02
  -9.430  0.7070E-01  0.3314E-02
  -9.425  0.7773E-01  0.3703E-02
  -9.420  0.8529E-01  0.4130E-02
  -9.415  0.9339E-01  0.4597E-02
  -9.410  0.1021E+00  0.5107E-02
  -9.405  0.1113E+00  0.5663E-02
  -9.400  0.1212E+00  0.6269E-02
  -9.395  0.1316E+00  0.6927E-02
  -9.390  0.1427E+00  0.7641E-02
  -9.385  0.1545E+00  0.8414E-02
  -9.380  0.1669E+00  0.9248E-02
  -9.375  0.1799E+00  0.1015E-01
  -9.370  0.1936E+00  0.1112E-01
  -9.365  0.2080E+00  0.1216E-01
  -9.360  0.2231E+00  0.1327E-01
  -9.355  0.2388E+00  0.1447E-01
  -9.350  0.2552E+00  0.1574E-01
  -9.345  0.2722E+00  0.1710E-01
  -9.340  0.2899E+00  0.1855E-01
  -9.335  0.3083E+00  0.2009E-01
  -9.330  0.3272E+00  0.2173E-01
  -9.325  0.3468E+00  0.2346E-01
  -9.320  0.3670E+00  0.2530E-01
  -9.315  0.3877E+00  0.2724E-01
  -9.310  0.4091E+00  0.2928E-01
  -9.305  0.4309E+00  0.3144E-01
  -9.300  0.4533E+00  0.3370E-01
  -9.295  0.4762E+00  0.3609E-01
  -9.290  0.4996E+00  0.3858E-01
  -9.285  0.5234E+00  0.4120E-01
  -9.280  0.5477E+00  0.4394E-01
  -9.275  0.5723E+00  0.4680E-01
  -9.270  0.5974E+00  0.4979E-01
  -9.265  0.6228E+00  0.5290E-01
  -9.260  0.6485E+00  0.5614E-01
  -9.255  0.6746E+00  0.5952E-01
  -9.250  0.7010E+00  0.6302E-01
  -9.245  0.7276E+00  0.6666E-01
  -9.240  0.7546E+00  0.7043E-01
  -9.235  0.7817E+00  0.7434E-01
  -9.230  0.8091E+00  0.7839E-01
  -9.225  0.8367E+00  0.8257E-01
  -9.220  0.8645E+00  0.8689E-01
  -9.215  0.8925E+00  0.9136E-01
  -9.210  0.9206E+00  0.9596E-01
  -9.205  0.9489E+00  0.1007E+00
  -9.200  0.9774E+00  0.1056E+00
  -9.195  0.1006E+01  0.1106E+00
  -9.190  0.1035E+01  0.1158E+00
  -9.185  0.1063E+01  0.1211E+00
  -9.180  0.1092E+01  0.1266E+00
  -9.175  0.1121E+01  0.1322E+00
  -9.170  0.1150E+01  0.1379E+00
  -9.165  0.1179E+01  0.1438E+00
  -9.160  0.1208E+01  0.1499E+00
  -9.155  0.1237E+01  0.1560E+00
  -9.150  0.1266E+01  0.1624E+00
  -9.145  0.1295E+01  0.1688E+00
  -9.140  0.1324E+01  0.1755E+00
  -9.135  0.1352E+01  0.1822E+00
  -9.130  0.1381E+01  0.1891E+00
  -9.125  0.1409E+01  0.1962E+00
  -9.120  0.1438E+01  0.2034E+00
  -9.115  0.1466E+01  0.2107E+00
  -9.110  0.1494E+01  0.2182E+00
  -9.105  0.1522E+01  0.2258E+00
  -9.100  0.1549E+01  0.2335E+00
  -9.095  0.1576E+01  0.2414E+00
  -9.090  0.1603E+01  0.2494E+00
  -9.085  0.1629E+01  0.2576E+00
  -9.080  0.1655E+01  0.2658E+00
  -9.075  0.1681E+01  0.2742E+00
  -9.070  0.1706E+01  0.2828E+00
  -9.065  0.1731E+01  0.2914E+00
  -9.060  0.1755E+01  0.3002E+00
  -9.055  0.1779E+01  0.3091E+00
  -9.050  0.1802E+01  0.3181E+00
  -9.045  0.1825E+01  0.3272E+00
  -9.040  0.1847E+01  0.3365E+00
  -9.035  0.1868E+01  0.3458E+00
  -9.030  0.1889E+01  0.3553E+00
  -9.025  0.1909E+01  0.3648E+00
  -9.020  0.1928E+01  0.3744E+00
  -9.015  0.1947E+01  0.3842E+00
  -9.010  0.1965E+01  0.3940E+00
  -9.005  0.1983E+01  0.4039E+00
  -9.000  0.1999E+01  0.4139E+00
  -8.995  0.2015E+01  0.4240E+00
  -8.990  0.2030E+01  0.4341E+00
  -8.985  0.2044E+01  0.4444E+00
  -8.980  0.2057E+01  0.4546E+00
  -8.975  0.2070E+01  0.4650E+00
  -8.970  0.2082E+01  0.4754E+00
  -8.965  0.2093E+01  0.4859E+00
  -8.960  0.2103E+01  0.4964E+00
  -8.955  0.2112E+01  0.5069E+00
  -8.950  0.2121E+01  0.5176E+00
  -8.945  0.2129E+01  0.5282E+00
  -8.940  0.2135E+01  0.5389E+00
  -8.935  0.2141E+01  0.5496E+00
  -8.930  0.2147E+01  0.5603E+00
  -8.925  0.2151E+01  0.5711E+00
  -8.920  0.2155E+01  0.5818E+00
  -8.915  0.2157E+01  0.5926E+00
  -8.910  0.2159E+01  0.6034E+00
  -8.905  0.2161E+01  0.6142E+00
  -8.900  0.2161E+01  0.6250E+00
  -8.895  0.2161E+01  0.6358E+00
  -8.890  0.2160E+01  0.6466E+00
  -8.885  0.2159E+01  0.6574E+00
  -8.880  0.2157E+01  0.6682E+00
  -8.875  0.2154E+01  0.6790E+00
  -8.870  0.2151E+01  0.6897E+00
  -8.865  0.2148E+01  0.7005E+00
  -8.860  0.2144E+01  0.7112E+00
  -8.855  0.2140E+01  0.7219E+00
  -8.850  0.2135E+01  0.7326E+00
  -8.845  0.2130E+01  0.7432E+00
  -8.840  0.2125E+01  0.7539E+00
  -8.835  0.2120E+01  0.7645E+00
  -8.830  0.2115E+01  0.7750E+00
  -8.825  0.2111E+01  0.7856E+00
  -8.820  0.2106E+01  0.7961E+00
  -8.815  0.2101E+01  0.8066E+00
  -8.810  0.2097E+01  0.8171E+00
  -8.805  0.2093E+01  0.8276E+00
  -8.800  0.2089E+01  0.8380E+00
  -8.795  0.2086E+01  0.8485E+00
  -8.790  0.2084E+01  0.8589E+00
  -8.785  0.2082E+01  0.8693E+00
  -8.780  0.2081E+01  0.8797E+00
  -8.775  0.2081E+01  0.8901E+00
  -8.770  0.2082E+01  0.9005E+00
  -8.765  0.2083E+01  0.9109E+00
  -8.760  0.2086E+01  0.9214E+00
  -8.755  0.2089E+01  0.9318E+00
  -8.750  0.2094E+01  0.9423E+00
  -8.745  0.2100E+01  0.9528E+00
  -8.740  0.2107E+01  0.9633E+00
  -8.735  0.2115E+01  0.9739E+00
  -8.730  0.2125E+01  0.9845E+00
  -8.725  0.2136E+01  0.9952E+00
  -8.720  0.2148E+01  0.1006E+01
  -8.715  0.2162E+01  0.1017E+01
  -8.710  0.2176E+01  0.1028E+01
  -8.705  0.2193E+01  0.1039E+01
  -8.700  0.2210E+01  0.1050E+01
  -8.695  0.2229E+01  0.1061E+01
  -8.690  0.2249E+01  0.1072E+01
  -8.685  0.2270E+01  0.1083E+01
  -8.680  0.2293E+01  0.1095E+01
  -8.675  0.2316E+01  0.1106E+01
  -8.670  0.2341E+01  0.1118E+01
  -8.665  0.2367E+01  0.1130E+01
  -8.660  0.2394E+01  0.1142E+01
  -8.655  0.2422E+01  0.1154E+01
  -8.650  0.2451E+01  0.1166E+01
  -8.645  0.2480E+01  0.1179E+01
  -8.640  0.2511E+01  0.1191E+01
  -8.635  0.2542E+01  0.1204E+01
  -8.630  0.2574E+01  0.1217E+01
  -8.625  0.2606E+01  0.1230E+01
  -8.620  0.2638E+01  0.1243E+01
  -8.615  0.2671E+01  0.1256E+01
  -8.610  0.2705E+01  0.1270E+01
  -8.605  0.2738E+01  0.1284E+01
  -8.600  0.2772E+01  0.1297E+01
  -8.595  0.2806E+01  0.1312E+01
  -8.590  0.2839E+01  0.1326E+01
  -8.585  0.2873E+01  0.1340E+01
  -8.580  0.2907E+01  0.1355E+01
  -8.575  0.2941E+01  0.1369E+01
  -8.570  0.2974E+01  0.1384E+01
  -8.565  0.3008E+01  0.1399E+01
  -8.560  0.3041E+01  0.1414E+01
  -8.555  0.3074E+01  0.1430E+01
  -8.550  0.3107E+01  0.1445E+01
  -8.545  0.3140E+01  0.1461E+01
  -8.540  0.3172E+01  0.1477E+01
  -8.535  0.3205E+01  0.1493E+01
  -8.530  0.3237E+01  0.1509E+01
  -8.525  0.3269E+01  0.1525E+01
  -8.520  0.3301E+01  0.1542E+01
  -8.515  0.3333E+01  0.1559E+01
  -8.510  0.3366E+01  0.1575E+01
  -8.505  0.3398E+01  0.1592E+01
  -8.500  0.3431E+01  0.1610E+01
  -8.495  0.3464E+01  0.1627E+01
  -8.490  0.3497E+01  0.1644E+01
  -8.485  0.3531E+01  0.1662E+01
  -8.480  0.3565E+01  0.1680E+01
  -8.475  0.3600E+01  0.1698E+01
  -8.470  0.3635E+01  0.1716E+01
  -8.465  0.3672E+01  0.1734E+01
  -8.460  0.3709E+01  0.1753E+01
  -8.455  0.3747E+01  0.1772E+01
  -8.450  0.3787E+01  0.1791E+01
  -8.445  0.3827E+01  0.1810E+01
  -8.440  0.3869E+01  0.1829E+01
  -8.435  0.3912E+01  0.1849E+01
  -8.430  0.3956E+01  0.1868E+01
  -8.425  0.4003E+01  0.1888E+01
  -8.420  0.4050E+01  0.1909E+01
  -8.415  0.4100E+01  0.1929E+01
  -8.410  0.4151E+01  0.1950E+01
  -8.405  0.4204E+01  0.1971E+01
  -8.400  0.4258E+01  0.1992E+01
  -8.395  0.4315E+01  0.2014E+01
  -8.390  0.4374E+01  0.2036E+01
  -8.385  0.4435E+01  0.2058E+01
  -8.380  0.4497E+01  0.2080E+01
  -8.375  0.4562E+01  0.2103E+01
  -8.370  0.4629E+01  0.2126E+01
  -8.365  0.4698E+01  0.2150E+01
  -8.360  0.4770E+01  0.2174E+01
  -8.355  0.4843E+01  0.2198E+01
  -8.350  0.4919E+01  0.2222E+01
  -8.345  0.4997E+01  0.2247E+01
  -8.340  0.5076E+01  0.2273E+01
  -8.335  0.5158E+01  0.2299E+01
  -8.330  0.5242E+01  0.2325E+01
  -8.325  0.5328E+01  0.2351E+01
  -8.320  0.5416E+01  0.2379E+01
  -8.315  0.5506E+01  0.2406E+01
  -8.310  0.5597E+01  0.2434E+01
  -8.305  0.5690E+01  0.2463E+01
  -8.300  0.5785E+01  0.2491E+01
  -8.295  0.5881E+01  0.2521E+01
  -8.290  0.5978E+01  0.2551E+01
  -8.285  0.6076E+01  0.2581E+01
  -8.280  0.6176E+01  0.2612E+01
  -8.275  0.6276E+01  0.2643E+01
  -8.270  0.6377E+01  0.2675E+01
  -8.265  0.6478E+01  0.2708E+01
  -8.260  0.6580E+01  0.2741E+01
  -8.255  0.6682E+01  0.2774E+01
  -8.250  0.6784E+01  0.2808E+01
  -8.245  0.6885E+01  0.2842E+01
  -8.240  0.6986E+01  0.2877E+01
  -8.235  0.7087E+01  0.2913E+01
  -8.230  0.7186E+01  0.2949E+01
  -8.225  0.7284E+01  0.2985E+01
  -8.220  0.7381E+01  0.3022E+01
  -8.215  0.7476E+01  0.3059E+01
  -8.210  0.7570E+01  0.3097E+01
  -8.205  0.7661E+01  0.3135E+01
  -8.200  0.7750E+01  0.3174E+01
  -8.195  0.7837E+01  0.3213E+01
  -8.190  0.7922E+01  0.3253E+01
  -8.185  0.8004E+01  0.3293E+01
  -8.180  0.8083E+01  0.3333E+01
  -8.175  0.8159E+01  0.3374E+01
  -8.170  0.8232E+01  0.3415E+01
  -8.165  0.8302E+01  0.3457E+01
  -8.160  0.8369E+01  0.3499E+01
  -8.155  0.8432E+01  0.3541E+01
  -8.150  0.8493E+01  0.3583E+01
  -8.145  0.8550E+01  0.3626E+01
  -8.140  0.8604E+01  0.3669E+01
  -8.135  0.8655E+01  0.3712E+01
  -8.130  0.8702E+01  0.3756E+01
  -8.125  0.8747E+01  0.3800E+01
  -8.120  0.8789E+01  0.3844E+01
  -8.115  0.8828E+01  0.3888E+01
  -8.110  0.8864E+01  0.3932E+01
  -8.105  0.8898E+01  0.3977E+01
  -8.100  0.8929E+01  0.4021E+01
  -8.095  0.8958E+01  0.4066E+01
  -8.090  0.8986E+01  0.4111E+01
  -8.085  0.9011E+01  0.4156E+01
  -8.080  0.9035E+01  0.4201E+01
  -8.075  0.9058E+01  0.4246E+01
  -8.070  0.9079E+01  0.4292E+01
  -8.065  0.9099E+01  0.4337E+01
  -8.060  0.9119E+01  0.4383E+01
  -8.055  0.9138E+01  0.4429E+01
  -8.050  0.9157E+01  0.4474E+01
  -8.045  0.9175E+01  0.4520E+01
  -8.040  0.9194E+01  0.4566E+01
  -8.035  0.9213E+01  0.4612E+01
  -8.030  0.9232E+01  0.4658E+01
  -8.025  0.9251E+01  0.4705E+01
  -8.020  0.9272E+01  0.4751E+01
  -8.015  0.9293E+01  0.4798E+01
  -8.010  0.9315E+01  0.4844E+01
  -8.005  0.9338E+01  0.4891E+01
  -8.000  0.9362E+01  0.4938E+01
  -7.995  0.9387E+01  0.4985E+01
  -7.990  0.9414E+01  0.5032E+01
  -7.985  0.9442E+01  0.5079E+01
  -7.980  0.9471E+01  0.5126E+01
  -7.975  0.9502E+01  0.5174E+01
  -7.970  0.9534E+01  0.5221E+01
  -7.965  0.9568E+01  0.5269E+01
  -7.960  0.9603E+01  0.5317E+01
  -7.955  0.9640E+01  0.5365E+01
  -7.950  0.9678E+01  0.5414E+01
  -7.945  0.9717E+01  0.5462E+01
  -7.940  0.9757E+01  0.5511E+01
  -7.935  0.9799E+01  0.5560E+01
  -7.930  0.9842E+01  0.5609E+01
  -7.925  0.9886E+01  0.5659E+01
  -7.920  0.9931E+01  0.5708E+01
  -7.915  0.9976E+01  0.5758E+01
  -7.910  0.1002E+02  0.5808E+01
  -7.905  0.1007E+02  0.5859E+01
  -7.900  0.1012E+02  0.5909E+01
  -7.895  0.1016E+02  0.5960E+01
  -7.890  0.1021E+02  0.6011E+01
  -7.885  0.1026E+02  0.6063E+01
  -7.880  0.1031E+02  0.6114E+01
  -7.875  0.1035E+02  0.6166E+01
  -7.870  0.1040E+02  0.6218E+01
  -7.865  0.1044E+02  0.6270E+01
  -7.860  0.1049E+02  0.6322E+01
  -7.855  0.1053E+02  0.6375E+01
  -7.850  0.1057E+02  0.6428E+01
  -7.845  0.1061E+02  0.6481E+01
  -7.840  0.1065E+02  0.6534E+01
  -7.835  0.1069E+02  0.6588E+01
  -7.830  0.1072E+02  0.6641E+01
  -7.825  0.1076E+02  0.6695E+01
  -7.820  0.1079E+02  0.6749E+01
  -7.815  0.1082E+02  0.6803E+01
  -7.810  0.1085E+02  0.6857E+01
  -7.805  0.1087E+02  0.6912E+01
  -7.800  0.1090E+02  0.6966E+01
  -7.795  0.1092E+02  0.7021E+01
  -7.790  0.1094E+02  0.7076E+01
  -7.785  0.1097E+02  0.7130E+01
  -7.780  0.1099E+02  0.7185E+01
  -7.775  0.1101E+02  0.7240E+01
  -7.770  0.1103E+02  0.7295E+01
  -7.765  0.1105E+02  0.7351E+01
  -7.760  0.1107E+02  0.7406E+01
  -7.755  0.1109E+02  0.7462E+01
  -7.750  0.1112E+02  0.7517E+01
  -7.745  0.1114E+02  0.7573E+01
  -7.740  0.1117E+02  0.7629E+01
  -7.735  0.1120E+02  0.7685E+01
  -7.730  0.1124E+02  0.7741E+01
  -7.725  0.1128E+02  0.7797E+01
  -7.720  0.1132E+02  0.7854E+01
  -7.715  0.1137E+02  0.7911E+01
  -7.710  0.1142E+02  0.7968E+01
  -7.705  0.1147E+02  0.8025E+01
  -7.700  0.1153E+02  0.8083E+01
  -7.695  0.1160E+02  0.8141E+01
  -7.690  0.1167E+02  0.8199E+01
  -7.685  0.1175E+02  0.8258E+01
  -7.680  0.1184E+02  0.8317E+01
  -7.675  0.1193E+02  0.8377E+01
  -7.670  0.1202E+02  0.8437E+01
  -7.665  0.1212E+02  0.8497E+01
  -7.660  0.1222E+02  0.8559E+01
  -7.655  0.1233E+02  0.8620E+01
  -7.650  0.1244E+02  0.8682E+01
  -7.645  0.1256E+02  0.8745E+01
  -7.640  0.1267E+02  0.8809E+01
  -7.635  0.1279E+02  0.8873E+01
  -7.630  0.1291E+02  0.8937E+01
  -7.625  0.1302E+02  0.9002E+01
  -7.620  0.1314E+02  0.9068E+01
  -7.615  0.1325E+02  0.9134E+01
  -7.610  0.1336E+02  0.9201E+01
  -7.605  0.1346E+02  0.9268E+01
  -7.600  0.1356E+02  0.9336E+01
  -7.595  0.1365E+02  0.9404E+01
  -7.590  0.1373E+02  0.9473E+01
  -7.585  0.1380E+02  0.9542E+01
  -7.580  0.1386E+02  0.9611E+01
  -7.575  0.1391E+02  0.9681E+01
  -7.570  0.1395E+02  0.9751E+01
  -7.565  0.1397E+02  0.9820E+01
  -7.560  0.1397E+02  0.9890E+01
  -7.555  0.1396E+02  0.9960E+01
  -7.550  0.1393E+02  0.1003E+02
  -7.545  0.1388E+02  0.1010E+02
  -7.540  0.1382E+02  0.1017E+02
  -7.535  0.1373E+02  0.1024E+02
  -7.530  0.1363E+02  0.1031E+02
  -7.525  0.1351E+02  0.1037E+02
  -7.520  0.1337E+02  0.1044E+02
  -7.515  0.1321E+02  0.1051E+02
  -7.510  0.1303E+02  0.1057E+02
  -7.505  0.1283E+02  0.1063E+02
  -7.500  0.1261E+02  0.1070E+02
  -7.495  0.1238E+02  0.1076E+02
  -7.490  0.1213E+02  0.1082E+02
  -7.485  0.1186E+02  0.1088E+02
  -7.480  0.1158E+02  0.1094E+02
  -7.475  0.1128E+02  0.1099E+02
  -7.470  0.1097E+02  0.1105E+02
  -7.465  0.1065E+02  0.1110E+02
  -7.460  0.1032E+02  0.1115E+02
  -7.455  0.9979E+01  0.1120E+02
  -7.450  0.9631E+01  0.1125E+02
  -7.445  0.9277E+01  0.1130E+02
  -7.440  0.8919E+01  0.1134E+02
  -7.435  0.8557E+01  0.1139E+02
  -7.430  0.8193E+01  0.1143E+02
  -7.425  0.7829E+01  0.1147E+02
  -7.420  0.7466E+01  0.1150E+02
  -7.415  0.7105E+01  0.1154E+02
  -7.410  0.6747E+01  0.1157E+02
  -7.405  0.6395E+01  0.1160E+02
  -7.400  0.6047E+01  0.1163E+02
  -7.395  0.5707E+01  0.1166E+02
  -7.390  0.5375E+01  0.1169E+02
  -7.385  0.5051E+01  0.1171E+02
  -7.380  0.4736E+01  0.1174E+02
  -7.375  0.4432E+01  0.1176E+02
  -7.370  0.4138E+01  0.1178E+02
  -7.365  0.3855E+01  0.1180E+02
  -7.360  0.3584E+01  0.1182E+02
  -7.355  0.3325E+01  0.1184E+02
  -7.350  0.3077E+01  0.1185E+02
  -7.345  0.2842E+01  0.1186E+02
  -7.340  0.2619E+01  0.1188E+02
  -7.335  0.2408E+01  0.1189E+02
  -7.330  0.2210E+01  0.1190E+02
  -7.325  0.2023E+01  0.1191E+02
  -7.320  0.1848E+01  0.1192E+02
  -7.315  0.1684E+01  0.1193E+02
  -7.310  0.1531E+01  0.1194E+02
  -7.305  0.1389E+01  0.1194E+02
  -7.300  0.1258E+01  0.1195E+02
  -7.295  0.1136E+01  0.1196E+02
  -7.290  0.1024E+01  0.1196E+02
  -7.285  0.9205E+00  0.1197E+02
  -7.280  0.8258E+00  0.1197E+02
  -7.275  0.7391E+00  0.1197E+02
  -7.270  0.6601E+00  0.1198E+02
  -7.265  0.5881E+00  0.1198E+02
  -7.260  0.5228E+00  0.1198E+02
  -7.255  0.4637E+00  0.1198E+02
  -7.250  0.4103E+00  0.1199E+02
  -7.245  0.3622E+00  0.1199E+02
  -7.240  0.3191E+00  0.1199E+02
  -7.235  0.2804E+00  0.1199E+02
  -7.230  0.2458E+00  0.1199E+02
  -7.225  0.2150E+00  0.1199E+02
  -7.220  0.1877E+00  0.1199E+02
  -7.215  0.1634E+00  0.1200E+02
  -7.210  0.1419E+00  0.1200E+02
  -7.205  0.1230E+00  0.1200E+02
  -7.200  0.1063E+00  0.1200E+02
  -7.195  0.9171E-01  0.1200E+02
  -7.190  0.7891E-01  0.1200E+02
  -7.185  0.6775E-01  0.1200E+02
  -7.180  0.5802E-01  0.1200E+02
  -7.175  0.4958E-01  0.1200E+02
  -7.170  0.4226E-01  0.1200E+02
  -7.165  0.3594E-01  0.1200E+02
  -7.160  0.3049E-01  0.1200E+02
  -7.155  0.2580E-01  0.1200E+02
  -7.150  0.2179E-01  0.1200E+02
  -7.145  0.1835E-01  0.1200E+02
  -7.140  0.1542E-01  0.1200E+02
  -7.135  0.1293E-01  0.1200E+02
  -7.130  0.1081E-01  0.1200E+02
  -7.125  0.9020E-02  0.1200E+02
  -7.120  0.7507E-02  0.1200E+02
  -7.115  0.6233E-02  0.1200E+02
  -7.110  0.5163E-02  0.1200E+02
  -7.105  0.4266E-02  0.1200E+02
  -7.100  0.3516E-02  0.1200E+02
  -7.095  0.2891E-02  0.1200E+02
  -7.090  0.2371E-02  0.1200E+02
  -7.085  0.1941E-02  0.1200E+02
  -7.080  0.1584E-02  0.1200E+02
  -7.075  0.1290E-02  0.1200E+02
  -7.070  0.1048E-02  0.1200E+02
  -7.065  0.8490E-03  0.1200E+02
  -7.060  0.6863E-03  0.1200E+02
  -7.055  0.5534E-03  0.1200E+02
  -7.050  0.4451E-03  0.1200E+02
  -7.045  0.3572E-03  0.1200E+02
  -7.040  0.2859E-03  0.1200E+02
  -7.035  0.2283E-03  0.1200E+02
  -7.030  0.1818E-03  0.1200E+02
  -7.025  0.1444E-03  0.1200E+02
  -7.020  0.1145E-03  0.1200E+02
  -7.015  0.9049E-04  0.1200E+02
  -7.010  0.7136E-04  0.1200E+02
  -7.005  0.5614E-04  0.1200E+02
  -7.000  0.4405E-04  0.1200E+02
  -6.995  0.3448E-04  0.1200E+02
  -6.990  0.2692E-04  0.1200E+02
  -6.985  0.2096E-04  0.1200E+02
  -6.980  0.1629E-04  0.1200E+02
  -6.975  0.1262E-04  0.1200E+02
  -6.970  0.9756E-05  0.1200E+02
  -6.965  0.7522E-05  0.1200E+02
  -6.960  0.5785E-05  0.1200E+02
  -6.955  0.4438E-05  0.1200E+02
  -6.950  0.3396E-05  0.1200E+02
  -6.945  0.2592E-05  0.1200E+02
  -6.940  0.1974E-05  0.1200E+02
  -6.935  0.1499E-05  0.1200E+02
  -6.930  0.1135E-05  0.1200E+02
  -6.925  0.8580E-06  0.1200E+02
  -6.920  0.6466E-06  0.1200E+02
  -6.915  0.4861E-06  0.1200E+02
  -6.910  0.3645E-06  0.1200E+02
  -6.905  0.2727E-06  0.1200E+02
  -6.900  0.2034E-06  0.1200E+02
  -6.895  0.1514E-06  0.1200E+02
  -6.890  0.1124E-06  0.1200E+02
  -6.885  0.8319E-07  0.1200E+02
  -6.880  0.6143E-07  0.1200E+02
  -6.875  0.4525E-07  0.1200E+02
  -6.870  0.3325E-07  0.1200E+02
  -6.865  0.2436E-07  0.1200E+02
  -6.860  0.1781E-07  0.1200E+02
  -6.855  0.1298E-07  0.1200E+02
  -6.850  0.9442E-08  0.1200E+02
  -6.845  0.6849E-08  0.1200E+02
  -6.840  0.4955E-08  0.1200E+02
  -6.835  0.3575E-08  0.1200E+02
  -6.830  0.2573E-08  0.1200E+02
  -6.825  0.1847E-08  0.1200E+02
  -6.820  0.1323E-08  0.1200E+02
  -6.815  0.9448E-09  0.1200E+02
  -6.810  0.6731E-09  0.1200E+02
  -6.805  0.4782E-09  0.1200E+02
  -6.800  0.3389E-09  0.1200E+02
  -6.795  0.2396E-09  0.1200E+02
  -6.790  0.1689E-09  0.1200E+02
  -6.785  0.1188E-09  0.1200E+02
  -6.780  0.8330E-10  0.1200E+02
  -6.775  0.5827E-10  0.1200E+02
  -6.770  0.4066E-10  0.1200E+02
  -6.765  0.2830E-10  0.1200E+02
  -6.760  0.1964E-10  0.1200E+02
  -6.755  0.1360E-10  0.1200E+02
  -6.750  0.9390E-11  0.1200E+02
  -6.745  0.6467E-11  0.1200E+02
  -6.740  0.4442E-11  0.1200E+02
  -6.735  0.3044E-11  0.1200E+02
  -6.730  0.2080E-11  0.1200E+02
  -6.725  0.1418E-11  0.1200E+02
  -6.720  0.9637E-12  0.1200E+02
  -6.715  0.6534E-12  0.1200E+02
  -6.710  0.4419E-12  0.1200E+02
  -6.705  0.2980E-12  0.1200E+02
  -6.700  0.2005E-12  0.1200E+02
  -6.695  0.1345E-12  0.1200E+02
  -6.690  0.9003E-13  0.1200E+02
  -6.685  0.6009E-13  0.1200E+02
  -6.680  0.4000E-13  0.1200E+02
  -6.675  0.2656E-13  0.1200E+02
  -6.670  0.1759E-13  0.1200E+02
  -6.665  0.1162E-13  0.1200E+02
  -6.660  0.7654E-14  0.1200E+02
  -6.655  0.5029E-14  0.1200E+02
  -6.650  0.3295E-14  0.1200E+02
  -6.645  0.2154E-14  0.1200E+02
  -6.640  0.1404E-14  0.1200E+02
  -6.635  0.9129E-15  0.1200E+02
  -6.630  0.5920E-15  0.1200E+02
  -6.625  0.3829E-15  0.1200E+02
  -6.620  0.2470E-15  0.1200E+02
  -6.615  0.1589E-15  0.1200E+02
  -6.610  0.1020E-15  0.1200E+02
  -6.605  0.6525E-16  0.1200E+02
  -6.600  0.4165E-16  0.1200E+02
  -6.595  0.2651E-16  0.1200E+02
  -6.590  0.1683E-16  0.1200E+02
  -6.585  0.1066E-16  0.1200E+02
  -6.580  0.6733E-17  0.1200E+02
  -6.575  0.4241E-17  0.1200E+02
  -6.570  0.2665E-17  0.1200E+02
  -6.565  0.1670E-17  0.1200E+02
  -6.560  0.1044E-17  0.1200E+02
  -6.555  0.6504E-18  0.1200E+02
  -6.550  0.4044E-18  0.1200E+02
  -6.545  0.2507E-18  0.1200E+02
  -6.540  0.1550E-18  0.1200E+02
  -6.535  0.9562E-19  0.1200E+02
  -6.530  0.5882E-19  0.1200E+02
  -6.525  0.3608E-19  0.1200E+02
  -6.520  0.2208E-19  0.1200E+02
  -6.515  0.1347E-19  0.1200E+02
  -6.510  0.8200E-20  0.1200E+02
  -6.505  0.4978E-20  0.1200E+02
  -6.500  0.3014E-20  0.1200E+02
  -6.495  0.1820E-20  0.1200E+02
  -6.490  0.1096E-20  0.1200E+02
  -6.485  0.6582E-21  0.1200E+02
  -6.480  0.3943E-21  0.1200E+02
  -6.475  0.2356E-21  0.1200E+02
  -6.470  0.1404E-21  0.1200E+02
  -6.465  0.8341E-22  0.1200E+02
  -6.460  0.4944E-22  0.1200E+02
  -6.455  0.2923E-22  0.1200E+02
  -6.450  0.1723E-22  0.1200E+02
  -6.445  0.1013E-22  0.1200E+02
  -6.440  0.5942E-23  0.1200E+02
  -6.435  0.3475E-23  0.1200E+02
  -6.430  0.2027E-23  0.1200E+02
  -6.425  0.1179E-23  0.1200E+02
  -6.420  0.6844E-24  0.1200E+02
  -6.415  0.3960E-24  0.1200E+02
  -6.410  0.2286E-24  0.1200E+02
  -6.405  0.1316E-24  0.1200E+02
  -6.400  0.7554E-25  0.1200E+02
  -6.395  0.4325E-25  0.1200E+02
  -6.390  0.2470E-25  0.1200E+02
  -6.385  0.1407E-25  0.1200E+02
  -6.380  0.7991E-26  0.1200E+02
  -6.375  0.4527E-26  0.1200E+02
  -6.370  0.2558E-26  0.1200E+02
  -6.365  0.1441E-26  0.1200E+02
  -6.360  0.8100E-27  0.1200E+02
  -6.355  0.4540E-27  0.1200E+02
  -6.350  0.2538E-27  0.1200E+02
  -6.345  0.1415E-27  0.1200E+02
  -6.340  0.7868E-28  0.1200E+02
  -6.335  0.4363E-28  0.1200E+02
  -6.330  0.2413E-28  0.1200E+02
  -6.325  0.1331E-28  0.1200E+02
  -6.320  0.7324E-29  0.1200E+02
  -6.315  0.4019E-29  0.1200E+02
  -6.310  0.2199E-29  0.1200E+02
  -6.305  0.1200E-29  0.1200E+02
  -6.300  0.6533E-30  0.1200E+02
  -6.295  0.3546E-30  0.1200E+02
  -6.290  0.1920E-30  0.1200E+02
  -6.285  0.1037E-30  0.1200E+02
  -6.280  0.5583E-31  0.1200E+02
  -6.275  0.2999E-31  0.1200E+02
  -6.270  0.1606E-31  0.1200E+02
  -6.265  0.8582E-32  0.1200E+02
  -6.260  0.4572E-32  0.1200E+02
  -6.255  0.2430E-32  0.1200E+02
  -6.250  0.1288E-32  0.1200E+02
  -6.245  0.6806E-33  0.1200E+02
  -6.240  0.3588E-33  0.1200E+02
  -6.235  0.1886E-33  0.1200E+02
  -6.230  0.9891E-34  0.1200E+02
  -6.225  0.5172E-34  0.1200E+02
  -6.220  0.2698E-34  0.1200E+02
  -6.215  0.1403E-34  0.1200E+02
  -6.210  0.7279E-35  0.1200E+02
  -6.205  0.3766E-35  0.1200E+02
  -6.200  0.1943E-35  0.1200E+02
  -6.195  0.1000E-35  0.1200E+02
  -6.190  0.5133E-36  0.1200E+02
  -6.185  0.2627E-36  0.1200E+02
  -6.180  0.1341E-36  0.1200E+02
  -6.175  0.6829E-37  0.1200E+02
  -6.170  0.3468E-37  0.1200E+02
  -6.165  0.1756E-37  0.1200E+02
  -6.160  0.8870E-38  0.1200E+02
  -6.155  0.4468E-38  0.1200E+02
  -6.150  0.2245E-38  0.1200E+02
  -6.145  0.1125E-38  0.1200E+02
  -6.140  0.5620E-39  0.1200E+02
  -6.135  0.2801E-39  0.1200E+02
  -6.130  0.1392E-39  0.1200E+02
  -6.125  0.6901E-40  0.1200E+02
  -6.120  0.3412E-40  0.1200E+02
  -6.115  0.1682E-40  0.1200E+02
  -6.110  0.8272E-41  0.1200E+02
  -6.105  0.4057E-41  0.1200E+02
  -6.100  0.1984E-41  0.1200E+02
  -6.095  0.9679E-42  0.1200E+02
  -6.090  0.4709E-42  0.1200E+02
  -6.085  0.2285E-42  0.1200E+02
  -6.080  0.1106E-42  0.1200E+02
  -6.075  0.5335E-43  0.1200E+02
  -6.070  0.2568E-43  0.1200E+02
  -6.065  0.1233E-43  0.1200E+02
  -6.060  0.5902E-44  0.1200E+02
  -6.055  0.2818E-44  0.1200E+02
  -6.050  0.1342E-44  0.1200E+02
  -6.045  0.6372E-45  0.1200E+02
  -6.040  0.3018E-45  0.1200E+02
  -6.035  0.1426E-45  0.1200E+02
  -6.030  0.6717E-46  0.1200E+02
  -6.025  0.3156E-46  0.1200E+02
  -6.020  0.1479E-46  0.1200E+02
  -6.015  0.6911E-47  0.1200E+02
  -6.010  0.3221E-47  0.1200E+02
  -6.005  0.1497E-47  0.1200E+02
  -6.000  0.6941E-48  0.1200E+02
  -5.995  0.3209E-48  0.1200E+02
  -5.990  0.1480E-48  0.1200E+02
  -5.985  0.6805E-49  0.1200E+02
  -5.980  0.3121E-49  0.1200E+02
  -5.975  0.1428E-49  0.1200E+02
  -5.970  0.6513E-50  0.1200E+02
  -5.965  0.2963E-50  0.1200E+02
  -5.960  0.1345E-50  0.1200E+02
  -5.955  0.6085E-51  0.1200E+02
  -5.950  0.2746E-51  0.1200E+02
  -5.945  0.1236E-51  0.1200E+02
  -5.940  0.5549E-52  0.1200E+02
  -5.935  0.2484E-52  0.1200E+02
  -5.930  0.1109E-52  0.1200E+02
  -5.925  0.4940E-53  0.1200E+02
  -5.920  0.2194E-53  0.1200E+02
  -5.915  0.9717E-54  0.1200E+02
  -5.910  0.4293E-54  0.1200E+02
  -5.905  0.1891E-54  0.1200E+02
  -5.900  0.8309E-55  0.1200E+02
  -5.895  0.3641E-55  0.1200E+02
  -5.890  0.1591E-55  0.1200E+02
  -5.885  0.6936E-56  0.1200E+02
  -5.880  0.3015E-56  0.1200E+02
  -5.875  0.1307E-56  0.1200E+02
  -5.870  0.5651E-57  0.1200E+02
  -5.865  0.2437E-57  0.1200E+02
  -5.860  0.1048E-57  0.1200E+02
  -5.855  0.4494E-58  0.1200E+02
  -5.850  0.1922E-58  0.1200E+02
  -5.845  0.8201E-59  0.1200E+02
  -5.840  0.3489E-59  0.1200E+02
  -5.835  0.1480E-59  0.1200E+02
  -5.830  0.6265E-60  0.1200E+02
  -5.825  0.2644E-60  0.1200E+02
  -5.820  0.1113E-60  0.1200E+02
  -5.815  0.4671E-61  0.1200E+02
  -5.810  0.1956E-61  0.1200E+02
  -5.805  0.8165E-62  0.1200E+02
  -5.800  0.3400E-62  0.1200E+02
  -5.795  0.1412E-62  0.1200E+02
  -5.790  0.5848E-63  0.1200E+02
  -5.785  0.2416E-63  0.1200E+02
  -5.780  0.9952E-64  0.1200E+02
  -5.775  0.4089E-64  0.1200E+02
  -5.770  0.1675E-64  0.1200E+02
  -5.765  0.6846E-65  0.1200E+02
  -5.760  0.2790E-65  0.1200E+02
  -5.755  0.1134E-65  0.1200E+02
  -5.750  0.4597E-66  0.1200E+02
  -5.745  0.1859E-66  0.1200E+02
  -5.740  0.7494E-67  0.1200E+02
  -5.735  0.3013E-67  0.1200E+02
  -5.730  0.1209E-67  0.1200E+02
  -5.725  0.4834E-68  0.1200E+02
  -5.720  0.1928E-68  0.1200E+02
  -5.715  0.7670E-69  0.1200E+02
  -5.710  0.3043E-69  0.1200E+02
  -5.705  0.1204E-69  0.1200E+02
  -5.700  0.4752E-70  0.1200E+02
  -5.695  0.1870E-70  0.1200E+02
  -5.690  0.7340E-71  0.1200E+02
  -5.685  0.2873E-71  0.1200E+02
  -5.680  0.1122E-71  0.1200E+02
  -5.675  0.4368E-72  0.1200E+02
  -5.670  0.1696E-72  0.1200E+02
  -5.665  0.6568E-73  0.1200E+02
  -5.660  0.2537E-73  0.1200E+02
  -5.655  0.9772E-74  0.1200E+02
  -5.650  0.3754E-74  0.1200E+02
  -5.645  0.1438E-74  0.1200E+02
  -5.640  0.5495E-75  0.1200E+02
  -5.635  0.2094E-75  0.1200E+02
  -5.630  0.7959E-76  0.1200E+02
  -5.625  0.3017E-76  0.1200E+02
  -5.620  0.1140E-76  0.1200E+02
  -5.615  0.4299E-77  0.1200E+02
  -5.610  0.1616E-77  0.1200E+02
  -5.605  0.6061E-78  0.1200E+02
  -5.600  0.2266E-78  0.1200E+02
  -5.595  0.8453E-79  0.1200E+02
  -5.590  0.3144E-79  0.1200E+02
  -5.585  0.1166E-79  0.1200E+02
  -5.580  0.4316E-80  0.1200E+02
  -5.575  0.1593E-80  0.1200E+02
  -5.570  0.5865E-81  0.1200E+02
  -5.565  0.2156E-81  0.1200E+02
  -5.560  0.7931E-82  0.1200E+02
  -5.555  0.2934E-82  0.1200E+02
  -5.550  0.1107E-82  0.1200E+02
  -5.545  0.4414E-83  0.1200E+02
  -5.540  0.1993E-83  0.1200E+02
  -5.535  0.1115E-83  0.1200E+02
  -5.530  0.7972E-84  0.1200E+02
  -5.525  0.6828E-84  0.1200E+02
  -5.520  0.6418E-84  0.1200E+02
  -5.515  0.6273E-84  0.1200E+02
  -5.510  0.6222E-84  0.1200E+02
  -5.505  0.6204E-84  0.1200E+02
  -5.500  0.6199E-84  0.1200E+02
  -5.495  0.6198E-84  0.1200E+02
  -5.490  0.6198E-84  0.1200E+02
  -5.485  0.6198E-84  0.1200E+02
  -5.480  0.6198E-84  0.1200E+02
  -5.475  0.6198E-84  0.1200E+02
  -5.470  0.6198E-84  0.1200E+02
  -5.465  0.6198E-84  0.1200E+02
  -5.460  0.6198E-84  0.1200E+02
  -5.455  0.6198E-84  0.1200E+02
  -5.450  0.6198E-84  0.1200E+02
  -5.445  0.6198E-84  0.1200E+02
  -5.440  0.6198E-84  0.1200E+02
  -5.435  0.6198E-84  0.1200E+02
  -5.430  0.6198E-84  0.1200E+02
  -5.425  0.6198E-84  0.1200E+02
  -5.420  0.6198E-84  0.1200E+02
  -5.415  0.6198E-84  0.1200E+02
  -5.410  0.6198E-84  0.1200E+02
  -5.405  0.6198E-84  0.1200E+02
  -5.400  0.6198E-84  0.1200E+02
  -5.395  0.6198E-84  0.1200E+02
  -5.390  0.6198E-84  0.1200E+02
  -5.385  0.6198E-84  0.1200E+02
  -5.380  0.6198E-84  0.1200E+02
  -5.375  0.6198E-84  0.1200E+02
  -5.370  0.6198E-84  0.1200E+02
  -5.365  0.6198E-84  0.1200E+02
  -5.360  0.6198E-84  0.1200E+02
  -5.355  0.6198E-84  0.1200E+02
  -5.350  0.6198E-84  0.1200E+02
  -5.345  0.6198E-84  0.1200E+02
  -5.340  0.6198E-84  0.1200E+02
  -5.335  0.6198E-84  0.1200E+02
  -5.330  0.6198E-84  0.1200E+02
  -5.325  0.6198E-84  0.1200E+02
  -5.320  0.6198E-84  0.1200E+02
  -5.315  0.6198E-84  0.1200E+02
  -5.310  0.6198E-84  0.1200E+02
  -5.305  0.6203E-84  0.1200E+02
  -5.300  0.6222E-84  0.1200E+02
  -5.295  0.6285E-84  0.1200E+02
  -5.290  0.6468E-84  0.1200E+02
  -5.285  0.6989E-84  0.1200E+02
  -5.280  0.8450E-84  0.1200E+02
  -5.275  0.1252E-83  0.1200E+02
  -5.270  0.2384E-83  0.1200E+02
  -5.265  0.5517E-83  0.1200E+02
  -5.260  0.1416E-82  0.1200E+02
  -5.255  0.3792E-82  0.1200E+02
  -5.250  0.1031E-81  0.1200E+02
  -5.245  0.2813E-81  0.1200E+02
  -5.240  0.7674E-81  0.1200E+02
  -5.235  0.2090E-80  0.1200E+02
  -5.230  0.5677E-80  0.1200E+02
  -5.225  0.1538E-79  0.1200E+02
  -5.220  0.4157E-79  0.1200E+02
  -5.215  0.1121E-78  0.1200E+02
  -5.210  0.3012E-78  0.1200E+02
  -5.205  0.8075E-78  0.1200E+02
  -5.200  0.2159E-77  0.1200E+02
  -5.195  0.5757E-77  0.1200E+02
  -5.190  0.1531E-76  0.1200E+02
  -5.185  0.4060E-76  0.1200E+02
  -5.180  0.1074E-75  0.1200E+02
  -5.175  0.2833E-75  0.1200E+02
  -5.170  0.7454E-75  0.1200E+02
  -5.165  0.1956E-74  0.1200E+02
  -5.160  0.5118E-74  0.1200E+02
  -5.155  0.1336E-73  0.1200E+02
  -5.150  0.3476E-73  0.1200E+02
  -5.145  0.9023E-73  0.1200E+02
  -5.140  0.2336E-72  0.1200E+02
  -5.135  0.6031E-72  0.1200E+02
  -5.130  0.1553E-71  0.1200E+02
  -5.125  0.3988E-71  0.1200E+02
  -5.120  0.1021E-70  0.1200E+02
  -5.115  0.2609E-70  0.1200E+02
  -5.110  0.6645E-70  0.1200E+02
  -5.105  0.1688E-69  0.1200E+02
  -5.100  0.4277E-69  0.1200E+02
  -5.095  0.1081E-68  0.1200E+02
  -5.090  0.2724E-68  0.1200E+02
  -5.085  0.6846E-68  0.1200E+02
  -5.080  0.1716E-67  0.1200E+02
  -5.075  0.4290E-67  0.1200E+02
  -5.070  0.1070E-66  0.1200E+02
  -5.065  0.2659E-66  0.1200E+02
  -5.060  0.6595E-66  0.1200E+02
  -5.055  0.1631E-65  0.1200E+02
  -5.050  0.4023E-65  0.1200E+02
  -5.045  0.9896E-65  0.1200E+02
  -5.040  0.2428E-64  0.1200E+02
  -5.035  0.5940E-64  0.1200E+02
  -5.030  0.1449E-63  0.1200E+02
  -5.025  0.3527E-63  0.1200E+02
  -5.020  0.8561E-63  0.1200E+02
  -5.015  0.2072E-62  0.1200E+02
  -5.010  0.5003E-62  0.1200E+02
  -5.005  0.1204E-61  0.1200E+02
  -5.000  0.2892E-61  0.1200E+02
  -4.995  0.6926E-61  0.1200E+02
  -4.990  0.1654E-60  0.1200E+02
  -4.985  0.3940E-60  0.1200E+02
  -4.980  0.9359E-60  0.1200E+02
  -4.975  0.2217E-59  0.1200E+02
  -4.970  0.5239E-59  0.1200E+02
  -4.965  0.1234E-58  0.1200E+02
  -4.960  0.2901E-58  0.1200E+02
  -4.955  0.6800E-58  0.1200E+02
  -4.950  0.1589E-57  0.1200E+02
  -4.945  0.3705E-57  0.1200E+02
  -4.940  0.8615E-57  0.1200E+02
  -4.935  0.1998E-56  0.1200E+02
  -4.930  0.4620E-56  0.1200E+02
  -4.925  0.1065E-55  0.1200E+02
  -4.920  0.2451E-55  0.1200E+02
  -4.915  0.5622E-55  0.1200E+02
  -4.910  0.1286E-54  0.1200E+02
  -4.905  0.2935E-54  0.1200E+02
  -4.900  0.6679E-54  0.1200E+02
  -4.895  0.1516E-53  0.1200E+02
  -4.890  0.3431E-53  0.1200E+02
  -4.885  0.7745E-53  0.1200E+02
  -4.880  0.1744E-52  0.1200E+02
  -4.875  0.3915E-52  0.1200E+02
  -4.870  0.8766E-52  0.1200E+02
  -4.865  0.1958E-51  0.1200E+02
  -4.860  0.4361E-51  0.1200E+02
  -4.855  0.9686E-51  0.1200E+02
  -4.850  0.2146E-50  0.1200E+02
  -4.845  0.4741E-50  0.1200E+02
  -4.840  0.1045E-49  0.1200E+02
  -4.835  0.2296E-49  0.1200E+02
  -4.830  0.5032E-49  0.1200E+02
  -4.825  0.1100E-48  0.1200E+02
  -4.820  0.2398E-48  0.1200E+02
  -4.815  0.5214E-48  0.1200E+02
  -4.810  0.1131E-47  0.1200E+02
  -4.805  0.2445E-47  0.1200E+02
  -4.800  0.5273E-47  0.1200E+02
  -4.795  0.1134E-46  0.1200E+02
  -4.790  0.2433E-46  0.1200E+02
  -4.785  0.5206E-46  0.1200E+02
  -4.780  0.1111E-45  0.1200E+02
  -4.775  0.2364E-45  0.1200E+02
  -4.770  0.5017E-45  0.1200E+02
  -4.765  0.1062E-44  0.1200E+02
  -4.760  0.2242E-44  0.1200E+02
  -4.755  0.4720E-44  0.1200E+02
  -4.750  0.9910E-44  0.1200E+02
  -4.745  0.2075E-43  0.1200E+02
  -4.740  0.4335E-43  0.1200E+02
  -4.735  0.9029E-43  0.1200E+02
  -4.730  0.1876E-42  0.1200E+02
  -4.725  0.3886E-42  0.1200E+02
  -4.720  0.8029E-42  0.1200E+02
  -4.715  0.1655E-41  0.1200E+02
  -4.710  0.3401E-41  0.1200E+02
  -4.705  0.6971E-41  0.1200E+02
  -4.700  0.1425E-40  0.1200E+02
  -4.695  0.2905E-40  0.1200E+02
  -4.690  0.5908E-40  0.1200E+02
  -4.685  0.1198E-39  0.1200E+02
  -4.680  0.2423E-39  0.1200E+02
  -4.675  0.4887E-39  0.1200E+02
  -4.670  0.9832E-39  0.1200E+02
  -4.665  0.1973E-38  0.1200E+02
  -4.660  0.3947E-38  0.1200E+02
  -4.655  0.7877E-38  0.1200E+02
  -4.650  0.1568E-37  0.1200E+02
  -4.645  0.3112E-37  0.1200E+02
  -4.640  0.6161E-37  0.1200E+02
  -4.635  0.1216E-36  0.1200E+02
  -4.630  0.2395E-36  0.1200E+02
  -4.625  0.4704E-36  0.1200E+02
  -4.620  0.9214E-36  0.1200E+02
  -4.615  0.1800E-35  0.1200E+02
  -4.610  0.3506E-35  0.1200E+02
  -4.605  0.6813E-35  0.1200E+02
  -4.600  0.1320E-34  0.1200E+02
  -4.595  0.2551E-34  0.1200E+02
  -4.590  0.4918E-34  0.1200E+02
  -4.585  0.9454E-34  0.1200E+02
  -4.580  0.1812E-33  0.1200E+02
  -4.575  0.3466E-33  0.1200E+02
  -4.570  0.6609E-33  0.1200E+02
  -4.565  0.1257E-32  0.1200E+02
  -4.560  0.2384E-32  0.1200E+02
  -4.555  0.4511E-32  0.1200E+02
  -4.550  0.8510E-32  0.1200E+02
  -4.545  0.1601E-31  0.1200E+02
  -4.540  0.3005E-31  0.1200E+02
  -4.535  0.5625E-31  0.1200E+02
  -4.530  0.1050E-30  0.1200E+02
  -4.525  0.1955E-30  0.1200E+02
  -4.520  0.3630E-30  0.1200E+02
  -4.515  0.6722E-30  0.1200E+02
  -4.510  0.1241E-29  0.1200E+02
  -4.505  0.2287E-29  0.1200E+02
  -4.500  0.4201E-29  0.1200E+02
  -4.495  0.7697E-29  0.1200E+02
  -4.490  0.1406E-28  0.1200E+02
  -4.485  0.2563E-28  0.1200E+02
  -4.480  0.4659E-28  0.1200E+02
  -4.475  0.8445E-28  0.1200E+02
  -4.470  0.1527E-27  0.1200E+02
  -4.465  0.2753E-27  0.1200E+02
  -4.460  0.4951E-27  0.1200E+02
  -4.455  0.8880E-27  0.1200E+02
  -4.450  0.1588E-26  0.1200E+02
  -4.445  0.2834E-26  0.1200E+02
  -4.440  0.5042E-26  0.1200E+02
  -4.435  0.8947E-26  0.1200E+02
  -4.430  0.1583E-25  0.1200E+02
  -4.425  0.2795E-25  0.1200E+02
  -4.420  0.4920E-25  0.1200E+02
  -4.415  0.8639E-25  0.1200E+02
  -4.410  0.1513E-24  0.1200E+02
  -4.405  0.2642E-24  0.1200E+02
  -4.400  0.4602E-24  0.1200E+02
  -4.395  0.7994E-24  0.1200E+02
  -4.390  0.1385E-23  0.1200E+02
  -4.385  0.2393E-23  0.1200E+02
  -4.380  0.4125E-23  0.1200E+02
  -4.375  0.7089E-23  0.1200E+02
  -4.370  0.1215E-22  0.1200E+02
  -4.365  0.2078E-22  0.1200E+02
  -4.360  0.3543E-22  0.1200E+02
  -4.355  0.6025E-22  0.1200E+02
  -4.350  0.1022E-21  0.1200E+02
  -4.345  0.1729E-21  0.1200E+02
  -4.340  0.2917E-21  0.1200E+02
  -4.335  0.4908E-21  0.1200E+02
  -4.330  0.8236E-21  0.1200E+02
  -4.325  0.1379E-20  0.1200E+02
  -4.320  0.2301E-20  0.1200E+02
  -4.315  0.3831E-20  0.1200E+02
  -4.310  0.6362E-20  0.1200E+02
  -4.305  0.1054E-19  0.1200E+02
  -4.300  0.1740E-19  0.1200E+02
  -4.295  0.2867E-19  0.1200E+02
  -4.290  0.4710E-19  0.1200E+02
  -4.285  0.7719E-19  0.1200E+02
  -4.280  0.1261E-18  0.1200E+02
  -4.275  0.2056E-18  0.1200E+02
  -4.270  0.3343E-18  0.1200E+02
  -4.265  0.5420E-18  0.1200E+02
  -4.260  0.8764E-18  0.1200E+02
  -4.255  0.1413E-17  0.1200E+02
  -4.250  0.2274E-17  0.1200E+02
  -4.245  0.3648E-17  0.1200E+02
  -4.240  0.5836E-17  0.1200E+02
  -4.235  0.9314E-17  0.1200E+02
  -4.230  0.1482E-16  0.1200E+02
  -4.225  0.2353E-16  0.1200E+02
  -4.220  0.3726E-16  0.1200E+02
  -4.215  0.5883E-16  0.1200E+02
  -4.210  0.9266E-16  0.1200E+02
  -4.205  0.1455E-15  0.1200E+02
  -4.200  0.2280E-15  0.1200E+02
  -4.195  0.3562E-15  0.1200E+02
  -4.190  0.5552E-15  0.1200E+02
  -4.185  0.8628E-15  0.1200E+02
  -4.180  0.1338E-14  0.1200E+02
  -4.175  0.2068E-14  0.1200E+02
  -4.170  0.3189E-14  0.1200E+02
  -4.165  0.4904E-14  0.1200E+02
  -4.160  0.7522E-14  0.1200E+02
  -4.155  0.1151E-13  0.1200E+02
  -4.150  0.1756E-13  0.1200E+02
  -4.145  0.2672E-13  0.1200E+02
  -4.140  0.4056E-13  0.1200E+02
  -4.135  0.6140E-13  0.1200E+02
  -4.130  0.9270E-13  0.1200E+02
  -4.125  0.1396E-12  0.1200E+02
  -4.120  0.2097E-12  0.1200E+02
  -4.115  0.3140E-12  0.1200E+02
  -4.110  0.4692E-12  0.1200E+02
  -4.105  0.6992E-12  0.1200E+02
  -4.100  0.1039E-11  0.1200E+02
  -4.095  0.1540E-11  0.1200E+02
  -4.090  0.2277E-11  0.1200E+02
  -4.085  0.3358E-11  0.1200E+02
  -4.080  0.4938E-11  0.1200E+02
  -4.075  0.7243E-11  0.1200E+02
  -4.070  0.1060E-10  0.1200E+02
  -4.065  0.1546E-10  0.1200E+02
  -4.060  0.2250E-10  0.1200E+02
  -4.055  0.3266E-10  0.1200E+02
  -4.050  0.4728E-10  0.1200E+02
  -4.045  0.6827E-10  0.1200E+02
  -4.040  0.9832E-10  0.1200E+02
  -4.035  0.1412E-09  0.1200E+02
  -4.030  0.2023E-09  0.1200E+02
  -4.025  0.2891E-09  0.1200E+02
  -4.020  0.4120E-09  0.1200E+02
  -4.015  0.5856E-09  0.1200E+02
  -4.010  0.8302E-09  0.1200E+02
  -4.005  0.1174E-08  0.1200E+02
  -4.000  0.1656E-08  0.1200E+02
  -3.995  0.2329E-08  0.1200E+02
  -3.990  0.3267E-08  0.1200E+02
  -3.985  0.4572E-08  0.1200E+02
  -3.980  0.6381E-08  0.1200E+02
  -3.975  0.8882E-08  0.1200E+02
  -3.970  0.1233E-07  0.1200E+02
  -3.965  0.1708E-07  0.1200E+02
  -3.960  0.2359E-07  0.1200E+02
  -3.955  0.3249E-07  0.1200E+02
  -3.950  0.4465E-07  0.1200E+02
  -3.945  0.6119E-07  0.1200E+02
  -3.940  0.8363E-07  0.1200E+02
  -3.935  0.1140E-06  0.1200E+02
  -3.930  0.1550E-06  0.1200E+02
  -3.925  0.2103E-06  0.1200E+02
  -3.920  0.2845E-06  0.1200E+02
  -3.915  0.3838E-06  0.1200E+02
  -3.910  0.5165E-06  0.1200E+02
  -3.905  0.6933E-06  0.1200E+02
  -3.900  0.9281E-06  0.1200E+02
  -3.895  0.1239E-05  0.1200E+02
  -3.890  0.1651E-05  0.1200E+02
  -3.885  0.2193E-05  0.1200E+02
  -3.880  0.2905E-05  0.1200E+02
  -3.875  0.3840E-05  0.1200E+02
  -3.870  0.5061E-05  0.1200E+02
  -3.865  0.6655E-05  0.1200E+02
  -3.860  0.8727E-05  0.1200E+02
  -3.855  0.1141E-04  0.1200E+02
  -3.850  0.1489E-04  0.1200E+02
  -3.845  0.1938E-04  0.1200E+02
  -3.840  0.2515E-04  0.1200E+02
  -3.835  0.3256E-04  0.1200E+02
  -3.830  0.4205E-04  0.1200E+02
  -3.825  0.5415E-04  0.1200E+02
  -3.820  0.6957E-04  0.1200E+02
  -3.815  0.8914E-04  0.1200E+02
  -3.810  0.1139E-03  0.1200E+02
  -3.805  0.1452E-03  0.1200E+02
  -3.800  0.1847E-03  0.1200E+02
  -3.795  0.2342E-03  0.1200E+02
  -3.790  0.2963E-03  0.1200E+02
  -3.785  0.3739E-03  0.1200E+02
  -3.780  0.4706E-03  0.1200E+02
  -3.775  0.5908E-03  0.1200E+02
  -3.770  0.7399E-03  0.1200E+02
  -3.765  0.9241E-03  0.1200E+02
  -3.760  0.1151E-02  0.1200E+02
  -3.755  0.1431E-02  0.1200E+02
  -3.750  0.1774E-02  0.1200E+02
  -3.745  0.2193E-02  0.1200E+02
  -3.740  0.2705E-02  0.1200E+02
  -3.735  0.3327E-02  0.1200E+02
  -3.730  0.4083E-02  0.1200E+02
  -3.725  0.4998E-02  0.1200E+02
  -3.720  0.6102E-02  0.1200E+02
  -3.715  0.7432E-02  0.1200E+02
  -3.710  0.9029E-02  0.1200E+02
  -3.705  0.1094E-01  0.1200E+02
  -3.700  0.1323E-01  0.1200E+02
  -3.695  0.1595E-01  0.1200E+02
  -3.690  0.1918E-01  0.1200E+02
  -3.685  0.2301E-01  0.1200E+02
  -3.680  0.2754E-01  0.1200E+02
  -3.675  0.3288E-01  0.1200E+02
  -3.670  0.3916E-01  0.1200E+02
  -3.665  0.4652E-01  0.1200E+02
  -3.660  0.5513E-01  0.1200E+02
  -3.655  0.6518E-01  0.1200E+02
  -3.650  0.7686E-01  0.1200E+02
  -3.645  0.9042E-01  0.1200E+02
  -3.640  0.1061E+00  0.1200E+02
  -3.635  0.1242E+00  0.1200E+02
  -3.630  0.1451E+00  0.1200E+02
  -3.625  0.1690E+00  0.1201E+02
  -3.620  0.1964E+00  0.1201E+02
  -3.615  0.2277E+00  0.1201E+02
  -3.610  0.2634E+00  0.1201E+02
  -3.605  0.3040E+00  0.1201E+02
  -3.600  0.3499E+00  0.1201E+02
  -3.595  0.4019E+00  0.1201E+02
  -3.590  0.4604E+00  0.1202E+02
  -3.585  0.5263E+00  0.1202E+02
  -3.580  0.6002E+00  0.1202E+02
  -3.575  0.6829E+00  0.1203E+02
  -3.570  0.7752E+00  0.1203E+02
  -3.565  0.8779E+00  0.1203E+02
  -3.560  0.9920E+00  0.1204E+02
  -3.555  0.1118E+01  0.1204E+02
  -3.550  0.1258E+01  0.1205E+02
  -3.545  0.1412E+01  0.1206E+02
  -3.540  0.1581E+01  0.1207E+02
  -3.535  0.1766E+01  0.1207E+02
  -3.530  0.1969E+01  0.1208E+02
  -3.525  0.2190E+01  0.1210E+02
  -3.520  0.2431E+01  0.1211E+02
  -3.515  0.2692E+01  0.1212E+02
  -3.510  0.2975E+01  0.1214E+02
  -3.505  0.3281E+01  0.1215E+02
  -3.500  0.3610E+01  0.1217E+02
  -3.495  0.3965E+01  0.1219E+02
  -3.490  0.4345E+01  0.1221E+02
  -3.485  0.4752E+01  0.1224E+02
  -3.480  0.5186E+01  0.1226E+02
  -3.475  0.5648E+01  0.1229E+02
  -3.470  0.6140E+01  0.1232E+02
  -3.465  0.6661E+01  0.1235E+02
  -3.460  0.7212E+01  0.1239E+02
  -3.455  0.7794E+01  0.1243E+02
  -3.450  0.8406E+01  0.1247E+02
  -3.445  0.9050E+01  0.1252E+02
  -3.440  0.9725E+01  0.1256E+02
  -3.435  0.1043E+02  0.1262E+02
  -3.430  0.1117E+02  0.1267E+02
  -3.425  0.1193E+02  0.1273E+02
  -3.420  0.1273E+02  0.1280E+02
  -3.415  0.1356E+02  0.1286E+02
  -3.410  0.1442E+02  0.1294E+02
  -3.405  0.1530E+02  0.1301E+02
  -3.400  0.1621E+02  0.1309E+02
  -3.395  0.1715E+02  0.1318E+02
  -3.390  0.1811E+02  0.1327E+02
  -3.385  0.1910E+02  0.1337E+02
  -3.380  0.2011E+02  0.1347E+02
  -3.375  0.2114E+02  0.1357E+02
  -3.370  0.2219E+02  0.1368E+02
  -3.365  0.2326E+02  0.1380E+02
  -3.360  0.2434E+02  0.1392E+02
  -3.355  0.2544E+02  0.1405E+02
  -3.350  0.2655E+02  0.1418E+02
  -3.345  0.2767E+02  0.1432E+02
  -3.340  0.2880E+02  0.1446E+02
  -3.335  0.2993E+02  0.1461E+02
  -3.330  0.3107E+02  0.1477E+02
  -3.325  0.3222E+02  0.1493E+02
  -3.320  0.3336E+02  0.1510E+02
  -3.315  0.3450E+02  0.1527E+02
  -3.310  0.3564E+02  0.1545E+02
  -3.305  0.3678E+02  0.1563E+02
  -3.300  0.3790E+02  0.1582E+02
  -3.295  0.3902E+02  0.1601E+02
  -3.290  0.4013E+02  0.1622E+02
  -3.285  0.4122E+02  0.1642E+02
  -3.280  0.4230E+02  0.1663E+02
  -3.275  0.4336E+02  0.1685E+02
  -3.270  0.4440E+02  0.1707E+02
  -3.265  0.4542E+02  0.1730E+02
  -3.260  0.4642E+02  0.1753E+02
  -3.255  0.4740E+02  0.1777E+02
  -3.250  0.4835E+02  0.1801E+02
  -3.245  0.4928E+02  0.1826E+02
  -3.240  0.5018E+02  0.1851E+02
  -3.235  0.5105E+02  0.1876E+02
  -3.230  0.5189E+02  0.1902E+02
  -3.225  0.5270E+02  0.1929E+02
  -3.220  0.5347E+02  0.1955E+02
  -3.215  0.5422E+02  0.1982E+02
  -3.210  0.5493E+02  0.2010E+02
  -3.205  0.5560E+02  0.2038E+02
  -3.200  0.5624E+02  0.2066E+02
  -3.195  0.5684E+02  0.2094E+02
  -3.190  0.5741E+02  0.2123E+02
  -3.185  0.5794E+02  0.2152E+02
  -3.180  0.5843E+02  0.2181E+02
  -3.175  0.5888E+02  0.2211E+02
  -3.170  0.5930E+02  0.2240E+02
  -3.165  0.5968E+02  0.2270E+02
  -3.160  0.6002E+02  0.2300E+02
  -3.155  0.6032E+02  0.2330E+02
  -3.150  0.6058E+02  0.2360E+02
  -3.145  0.6081E+02  0.2391E+02
  -3.140  0.6100E+02  0.2421E+02
  -3.135  0.6116E+02  0.2452E+02
  -3.130  0.6128E+02  0.2483E+02
  -3.125  0.6137E+02  0.2513E+02
  -3.120  0.6143E+02  0.2544E+02
  -3.115  0.6145E+02  0.2575E+02
  -3.110  0.6144E+02  0.2605E+02
  -3.105  0.6141E+02  0.2636E+02
  -3.100  0.6134E+02  0.2667E+02
  -3.095  0.6125E+02  0.2697E+02
  -3.090  0.6114E+02  0.2728E+02
  -3.085  0.6101E+02  0.2759E+02
  -3.080  0.6085E+02  0.2789E+02
  -3.075  0.6068E+02  0.2819E+02
  -3.070  0.6049E+02  0.2850E+02
  -3.065  0.6028E+02  0.2880E+02
  -3.060  0.6007E+02  0.2910E+02
  -3.055  0.5984E+02  0.2940E+02
  -3.050  0.5961E+02  0.2969E+02
  -3.045  0.5936E+02  0.2999E+02
  -3.040  0.5912E+02  0.3029E+02
  -3.035  0.5887E+02  0.3058E+02
  -3.030  0.5862E+02  0.3087E+02
  -3.025  0.5837E+02  0.3117E+02
  -3.020  0.5812E+02  0.3146E+02
  -3.015  0.5788E+02  0.3175E+02
  -3.010  0.5764E+02  0.3203E+02
  -3.005  0.5740E+02  0.3232E+02
  -3.000  0.5716E+02  0.3261E+02
  -2.995  0.5693E+02  0.3289E+02
  -2.990  0.5671E+02  0.3318E+02
  -2.985  0.5649E+02  0.3346E+02
  -2.980  0.5627E+02  0.3374E+02
  -2.975  0.5606E+02  0.3402E+02
  -2.970  0.5584E+02  0.3430E+02
  -2.965  0.5563E+02  0.3458E+02
  -2.960  0.5541E+02  0.3485E+02
  -2.955  0.5519E+02  0.3513E+02
  -2.950  0.5496E+02  0.3540E+02
  -2.945  0.5473E+02  0.3568E+02
  -2.940  0.5448E+02  0.3595E+02
  -2.935  0.5422E+02  0.3622E+02
  -2.930  0.5395E+02  0.3649E+02
  -2.925  0.5365E+02  0.3676E+02
  -2.920  0.5334E+02  0.3703E+02
  -2.915  0.5300E+02  0.3729E+02
  -2.910  0.5264E+02  0.3755E+02
  -2.905  0.5225E+02  0.3782E+02
  -2.900  0.5183E+02  0.3807E+02
  -2.895  0.5138E+02  0.3833E+02
  -2.890  0.5090E+02  0.3859E+02
  -2.885  0.5038E+02  0.3884E+02
  -2.880  0.4982E+02  0.3909E+02
  -2.875  0.4923E+02  0.3933E+02
  -2.870  0.4860E+02  0.3958E+02
  -2.865  0.4794E+02  0.3982E+02
  -2.860  0.4724E+02  0.4005E+02
  -2.855  0.4649E+02  0.4028E+02
  -2.850  0.4572E+02  0.4051E+02
  -2.845  0.4491E+02  0.4074E+02
  -2.840  0.4406E+02  0.4096E+02
  -2.835  0.4319E+02  0.4117E+02
  -2.830  0.4228E+02  0.4139E+02
  -2.825  0.4135E+02  0.4159E+02
  -2.820  0.4040E+02  0.4179E+02
  -2.815  0.3942E+02  0.4199E+02
  -2.810  0.3842E+02  0.4218E+02
  -2.805  0.3741E+02  0.4237E+02
  -2.800  0.3639E+02  0.4255E+02
  -2.795  0.3536E+02  0.4273E+02
  -2.790  0.3432E+02  0.4290E+02
  -2.785  0.3329E+02  0.4307E+02
  -2.780  0.3225E+02  0.4323E+02
  -2.775  0.3122E+02  0.4338E+02
  -2.770  0.3020E+02  0.4354E+02
  -2.765  0.2919E+02  0.4368E+02
  -2.760  0.2819E+02  0.4382E+02
  -2.755  0.2721E+02  0.4396E+02
  -2.750  0.2625E+02  0.4409E+02
  -2.745  0.2532E+02  0.4422E+02
  -2.740  0.2441E+02  0.4434E+02
  -2.735  0.2352E+02  0.4446E+02
  -2.730  0.2267E+02  0.4457E+02
  -2.725  0.2184E+02  0.4468E+02
  -2.720  0.2105E+02  0.4478E+02
  -2.715  0.2029E+02  0.4489E+02
  -2.710  0.1957E+02  0.4498E+02
  -2.705  0.1887E+02  0.4508E+02
  -2.700  0.1821E+02  0.4517E+02
  -2.695  0.1759E+02  0.4526E+02
  -2.690  0.1700E+02  0.4534E+02
  -2.685  0.1645E+02  0.4542E+02
  -2.680  0.1593E+02  0.4550E+02
  -2.675  0.1544E+02  0.4558E+02
  -2.670  0.1498E+02  0.4566E+02
  -2.665  0.1456E+02  0.4573E+02
  -2.660  0.1417E+02  0.4580E+02
  -2.655  0.1380E+02  0.4587E+02
  -2.650  0.1346E+02  0.4594E+02
  -2.645  0.1315E+02  0.4600E+02
  -2.640  0.1287E+02  0.4607E+02
  -2.635  0.1261E+02  0.4613E+02
  -2.630  0.1237E+02  0.4619E+02
  -2.625  0.1216E+02  0.4625E+02
  -2.620  0.1196E+02  0.4631E+02
  -2.615  0.1178E+02  0.4637E+02
  -2.610  0.1162E+02  0.4643E+02
  -2.605  0.1147E+02  0.4649E+02
  -2.600  0.1134E+02  0.4654E+02
  -2.595  0.1122E+02  0.4660E+02
  -2.590  0.1112E+02  0.4665E+02
  -2.585  0.1102E+02  0.4671E+02
  -2.580  0.1093E+02  0.4676E+02
  -2.575  0.1085E+02  0.4682E+02
  -2.570  0.1078E+02  0.4687E+02
  -2.565  0.1071E+02  0.4693E+02
  -2.560  0.1065E+02  0.4698E+02
  -2.555  0.1059E+02  0.4703E+02
  -2.550  0.1054E+02  0.4708E+02
  -2.545  0.1048E+02  0.4714E+02
  -2.540  0.1043E+02  0.4719E+02
  -2.535  0.1038E+02  0.4724E+02
  -2.530  0.1034E+02  0.4729E+02
  -2.525  0.1029E+02  0.4734E+02
  -2.520  0.1024E+02  0.4740E+02
  -2.515  0.1019E+02  0.4745E+02
  -2.510  0.1014E+02  0.4750E+02
  -2.505  0.1009E+02  0.4755E+02
  -2.500  0.1004E+02  0.4760E+02
  -2.495  0.9984E+01  0.4765E+02
  -2.490  0.9929E+01  0.4770E+02
  -2.485  0.9872E+01  0.4775E+02
  -2.480  0.9814E+01  0.4780E+02
  -2.475  0.9755E+01  0.4784E+02
  -2.470  0.9695E+01  0.4789E+02
  -2.465  0.9633E+01  0.4794E+02
  -2.460  0.9571E+01  0.4799E+02
  -2.455  0.9508E+01  0.4804E+02
  -2.450  0.9445E+01  0.4808E+02
  -2.445  0.9382E+01  0.4813E+02
  -2.440  0.9319E+01  0.4818E+02
  -2.435  0.9257E+01  0.4822E+02
  -2.430  0.9196E+01  0.4827E+02
  -2.425  0.9137E+01  0.4832E+02
  -2.420  0.9079E+01  0.4836E+02
  -2.415  0.9024E+01  0.4841E+02
  -2.410  0.8971E+01  0.4845E+02
  -2.405  0.8921E+01  0.4850E+02
  -2.400  0.8875E+01  0.4854E+02
  -2.395  0.8832E+01  0.4858E+02
  -2.390  0.8793E+01  0.4863E+02
  -2.385  0.8758E+01  0.4867E+02
  -2.380  0.8728E+01  0.4872E+02
  -2.375  0.8703E+01  0.4876E+02
  -2.370  0.8683E+01  0.4880E+02
  -2.365  0.8668E+01  0.4885E+02
  -2.360  0.8658E+01  0.4889E+02
  -2.355  0.8653E+01  0.4893E+02
  -2.350  0.8654E+01  0.4898E+02
  -2.345  0.8660E+01  0.4902E+02
  -2.340  0.8672E+01  0.4906E+02
  -2.335  0.8688E+01  0.4911E+02
  -2.330  0.8710E+01  0.4915E+02
  -2.325  0.8736E+01  0.4919E+02
  -2.320  0.8767E+01  0.4924E+02
  -2.315  0.8802E+01  0.4928E+02
  -2.310  0.8841E+01  0.4932E+02
  -2.305  0.8883E+01  0.4937E+02
  -2.300  0.8929E+01  0.4941E+02
  -2.295  0.8977E+01  0.4946E+02
  -2.290  0.9027E+01  0.4950E+02
  -2.285  0.9078E+01  0.4955E+02
  -2.280  0.9130E+01  0.4959E+02
  -2.275  0.9183E+01  0.4964E+02
  -2.270  0.9236E+01  0.4969E+02
  -2.265  0.9287E+01  0.4973E+02
  -2.260  0.9337E+01  0.4978E+02
  -2.255  0.9385E+01  0.4983E+02
  -2.250  0.9431E+01  0.4987E+02
  -2.245  0.9473E+01  0.4992E+02
  -2.240  0.9511E+01  0.4997E+02
  -2.235  0.9544E+01  0.5002E+02
  -2.230  0.9573E+01  0.5006E+02
  -2.225  0.9596E+01  0.5011E+02
  -2.220  0.9612E+01  0.5016E+02
  -2.215  0.9622E+01  0.5021E+02
  -2.210  0.9625E+01  0.5026E+02
  -2.205  0.9620E+01  0.5030E+02
  -2.200  0.9607E+01  0.5035E+02
  -2.195  0.9586E+01  0.5040E+02
  -2.190  0.9557E+01  0.5045E+02
  -2.185  0.9518E+01  0.5050E+02
  -2.180  0.9471E+01  0.5054E+02
  -2.175  0.9414E+01  0.5059E+02
  -2.170  0.9348E+01  0.5064E+02
  -2.165  0.9272E+01  0.5068E+02
  -2.160  0.9187E+01  0.5073E+02
  -2.155  0.9092E+01  0.5078E+02
  -2.150  0.8989E+01  0.5082E+02
  -2.145  0.8876E+01  0.5086E+02
  -2.140  0.8754E+01  0.5091E+02
  -2.135  0.8623E+01  0.5095E+02
  -2.130  0.8484E+01  0.5099E+02
  -2.125  0.8336E+01  0.5104E+02
  -2.120  0.8181E+01  0.5108E+02
  -2.115  0.8019E+01  0.5112E+02
  -2.110  0.7849E+01  0.5116E+02
  -2.105  0.7673E+01  0.5119E+02
  -2.100  0.7491E+01  0.5123E+02
  -2.095  0.7303E+01  0.5127E+02
  -2.090  0.7110E+01  0.5130E+02
  -2.085  0.6913E+01  0.5134E+02
  -2.080  0.6712E+01  0.5137E+02
  -2.075  0.6508E+01  0.5140E+02
  -2.070  0.6302E+01  0.5144E+02
  -2.065  0.6093E+01  0.5147E+02
  -2.060  0.5882E+01  0.5150E+02
  -2.055  0.5671E+01  0.5152E+02
  -2.050  0.5460E+01  0.5155E+02
  -2.045  0.5249E+01  0.5158E+02
  -2.040  0.5038E+01  0.5160E+02
  -2.035  0.4829E+01  0.5163E+02
  -2.030  0.4622E+01  0.5165E+02
  -2.025  0.4417E+01  0.5167E+02
  -2.020  0.4215E+01  0.5169E+02
  -2.015  0.4016E+01  0.5171E+02
  -2.010  0.3821E+01  0.5173E+02
  -2.005  0.3630E+01  0.5175E+02
  -2.000  0.3444E+01  0.5177E+02
  -1.995  0.3262E+01  0.5178E+02
  -1.990  0.3085E+01  0.5180E+02
  -1.985  0.2913E+01  0.5181E+02
  -1.980  0.2747E+01  0.5183E+02
  -1.975  0.2586E+01  0.5184E+02
  -1.970  0.2431E+01  0.5185E+02
  -1.965  0.2282E+01  0.5186E+02
  -1.960  0.2139E+01  0.5187E+02
  -1.955  0.2002E+01  0.5188E+02
  -1.950  0.1870E+01  0.5189E+02
  -1.945  0.1745E+01  0.5190E+02
  -1.940  0.1625E+01  0.5191E+02
  -1.935  0.1512E+01  0.5192E+02
  -1.930  0.1404E+01  0.5193E+02
  -1.925  0.1302E+01  0.5193E+02
  -1.920  0.1205E+01  0.5194E+02
  -1.915  0.1114E+01  0.5194E+02
  -1.910  0.1029E+01  0.5195E+02
  -1.905  0.9479E+00  0.5195E+02
  -1.900  0.8722E+00  0.5196E+02
  -1.895  0.8013E+00  0.5196E+02
  -1.890  0.7350E+00  0.5197E+02
  -1.885  0.6731E+00  0.5197E+02
  -1.880  0.6155E+00  0.5197E+02
  -1.875  0.5619E+00  0.5197E+02
  -1.870  0.5122E+00  0.5198E+02
  -1.865  0.4661E+00  0.5198E+02
  -1.860  0.4235E+00  0.5198E+02
  -1.855  0.3841E+00  0.5198E+02
  -1.850  0.3478E+00  0.5199E+02
  -1.845  0.3145E+00  0.5199E+02
  -1.840  0.2838E+00  0.5199E+02
  -1.835  0.2557E+00  0.5199E+02
  -1.830  0.2300E+00  0.5199E+02
  -1.825  0.2066E+00  0.5199E+02
  -1.820  0.1852E+00  0.5199E+02
  -1.815  0.1657E+00  0.5199E+02
  -1.810  0.1480E+00  0.5199E+02
  -1.805  0.1320E+00  0.5200E+02
  -1.800  0.1175E+00  0.5200E+02
  -1.795  0.1044E+00  0.5200E+02
  -1.790  0.9260E-01  0.5200E+02
  -1.785  0.8198E-01  0.5200E+02
  -1.780  0.7244E-01  0.5200E+02
  -1.775  0.6389E-01  0.5200E+02
  -1.770  0.5624E-01  0.5200E+02
  -1.765  0.4941E-01  0.5200E+02
  -1.760  0.4333E-01  0.5200E+02
  -1.755  0.3792E-01  0.5200E+02
  -1.750  0.3313E-01  0.5200E+02
  -1.745  0.2888E-01  0.5200E+02
  -1.740  0.2512E-01  0.5200E+02
  -1.735  0.2181E-01  0.5200E+02
  -1.730  0.1890E-01  0.5200E+02
  -1.725  0.1634E-01  0.5200E+02
  -1.720  0.1410E-01  0.5200E+02
  -1.715  0.1215E-01  0.5200E+02
  -1.710  0.1044E-01  0.5200E+02
  -1.705  0.8949E-02  0.5200E+02
  -1.700  0.7657E-02  0.5200E+02
  -1.695  0.6538E-02  0.5200E+02
  -1.690  0.5570E-02  0.5200E+02
  -1.685  0.4735E-02  0.5200E+02
  -1.680  0.4016E-02  0.5200E+02
  -1.675  0.3399E-02  0.5200E+02
  -1.670  0.2870E-02  0.5200E+02
  -1.665  0.2418E-02  0.5200E+02
  -1.660  0.2033E-02  0.5200E+02
  -1.655  0.1705E-02  0.5200E+02
  -1.650  0.1427E-02  0.5200E+02
  -1.645  0.1192E-02  0.5200E+02
  -1.640  0.9926E-03  0.5200E+02
  -1.635  0.8249E-03  0.5200E+02
  -1.630  0.6840E-03  0.5200E+02
  -1.625  0.5658E-03  0.5200E+02
  -1.620  0.4670E-03  0.5200E+02
  -1.615  0.3845E-03  0.5200E+02
  -1.610  0.3158E-03  0.5200E+02
  -1.605  0.2588E-03  0.5200E+02
  -1.600  0.2115E-03  0.5200E+02
  -1.595  0.1725E-03  0.5200E+02
  -1.590  0.1404E-03  0.5200E+02
  -1.585  0.1139E-03  0.5200E+02
  -1.580  0.9223E-04  0.5200E+02
  -1.575  0.7450E-04  0.5200E+02
  -1.570  0.6002E-04  0.5200E+02
  -1.565  0.4824E-04  0.5200E+02
  -1.560  0.3868E-04  0.5200E+02
  -1.555  0.3094E-04  0.5200E+02
  -1.550  0.2468E-04  0.5200E+02
  -1.545  0.1965E-04  0.5200E+02
  -1.540  0.1560E-04  0.5200E+02
  -1.535  0.1235E-04  0.5200E+02
  -1.530  0.9758E-05  0.5200E+02
  -1.525  0.7690E-05  0.5200E+02
  -1.520  0.6044E-05  0.5200E+02
  -1.515  0.4739E-05  0.5200E+02
  -1.510  0.3707E-05  0.5200E+02
  -1.505  0.2892E-05  0.5200E+02
  -1.500  0.2250E-05  0.5200E+02
  -1.495  0.1747E-05  0.5200E+02
  -1.490  0.1353E-05  0.5200E+02
  -1.485  0.1045E-05  0.5200E+02
  -1.480  0.8048E-06  0.5200E+02
  -1.475  0.6184E-06  0.5200E+02
  -1.470  0.4740E-06  0.5200E+02
  -1.465  0.3624E-06  0.5200E+02
  -1.460  0.2763E-06  0.5200E+02
  -1.455  0.2102E-06  0.5200E+02
  -1.450  0.1595E-06  0.5200E+02
  -1.445  0.1207E-06  0.5200E+02
  -1.440  0.9109E-07  0.5200E+02
  -1.435  0.6858E-07  0.5200E+02
  -1.430  0.5150E-07  0.5200E+02
  -1.425  0.3858E-07  0.5200E+02
  -1.420  0.2882E-07  0.5200E+02
  -1.415  0.2148E-07  0.5200E+02
  -1.410  0.1596E-07  0.5200E+02
  -1.405  0.1183E-07  0.5200E+02
  -1.400  0.8751E-08  0.5200E+02
  -1.395  0.6454E-08  0.5200E+02
  -1.390  0.4748E-08  0.5200E+02
  -1.385  0.3484E-08  0.5200E+02
  -1.380  0.2550E-08  0.5200E+02
  -1.375  0.1861E-08  0.5200E+02
  -1.370  0.1355E-08  0.5200E+02
  -1.365  0.9839E-09  0.5200E+02
  -1.360  0.7126E-09  0.5200E+02
  -1.355  0.5148E-09  0.5200E+02
  -1.350  0.3709E-09  0.5200E+02
  -1.345  0.2666E-09  0.5200E+02
  -1.340  0.1911E-09  0.5200E+02
  -1.335  0.1366E-09  0.5200E+02
  -1.330  0.9740E-10  0.5200E+02
  -1.325  0.6927E-10  0.5200E+02
  -1.320  0.4914E-10  0.5200E+02
  -1.315  0.3476E-10  0.5200E+02
  -1.310  0.2453E-10  0.5200E+02
  -1.305  0.1726E-10  0.5200E+02
  -1.300  0.1212E-10  0.5200E+02
  -1.295  0.8485E-11  0.5200E+02
  -1.290  0.5925E-11  0.5200E+02
  -1.285  0.4127E-11  0.5200E+02
  -1.280  0.2866E-11  0.5200E+02
  -1.275  0.1986E-11  0.5200E+02
  -1.270  0.1372E-11  0.5200E+02
  -1.265  0.9458E-12  0.5200E+02
  -1.260  0.6502E-12  0.5200E+02
  -1.255  0.4457E-12  0.5200E+02
  -1.250  0.3048E-12  0.5200E+02
  -1.245  0.2079E-12  0.5200E+02
  -1.240  0.1414E-12  0.5200E+02
  -1.235  0.9593E-13  0.5200E+02
  -1.230  0.6491E-13  0.5200E+02
  -1.225  0.4381E-13  0.5200E+02
  -1.220  0.2949E-13  0.5200E+02
  -1.215  0.1979E-13  0.5200E+02
  -1.210  0.1325E-13  0.5200E+02
  -1.205  0.8851E-14  0.5200E+02
  -1.200  0.5895E-14  0.5200E+02
  -1.195  0.3916E-14  0.5200E+02
  -1.190  0.2594E-14  0.5200E+02
  -1.185  0.1714E-14  0.5200E+02
  -1.180  0.1130E-14  0.5200E+02
  -1.175  0.7427E-15  0.5200E+02
  -1.170  0.4869E-15  0.5200E+02
  -1.165  0.3183E-15  0.5200E+02
  -1.160  0.2076E-15  0.5200E+02
  -1.155  0.1350E-15  0.5200E+02
  -1.150  0.8759E-16  0.5200E+02
  -1.145  0.5667E-16  0.5200E+02
  -1.140  0.3657E-16  0.5200E+02
  -1.135  0.2353E-16  0.5200E+02
  -1.130  0.1511E-16  0.5200E+02
  -1.125  0.9670E-17  0.5200E+02
  -1.120  0.6174E-17  0.5200E+02
  -1.115  0.3932E-17  0.5200E+02
  -1.110  0.2497E-17  0.5200E+02
  -1.105  0.1582E-17  0.5200E+02
  -1.100  0.9993E-18  0.5200E+02
  -1.095  0.6297E-18  0.5200E+02
  -1.090  0.3957E-18  0.5200E+02
  -1.085  0.2480E-18  0.5200E+02
  -1.080  0.1550E-18  0.5200E+02
  -1.075  0.9665E-19  0.5200E+02
  -1.070  0.6010E-19  0.5200E+02
  -1.065  0.3727E-19  0.5200E+02
  -1.060  0.2305E-19  0.5200E+02
  -1.055  0.1422E-19  0.5200E+02
  -1.050  0.8749E-20  0.5200E+02
  -1.045  0.5369E-20  0.5200E+02
  -1.040  0.3286E-20  0.5200E+02
  -1.035  0.2005E-20  0.5200E+02
  -1.030  0.1221E-20  0.5200E+02
  -1.025  0.7412E-21  0.5200E+02
  -1.020  0.4488E-21  0.5200E+02
  -1.015  0.2710E-21  0.5200E+02
  -1.010  0.1633E-21  0.5200E+02
  -1.005  0.9807E-22  0.5200E+02
  -1.000  0.5876E-22  0.5200E+02
  -0.995  0.3511E-22  0.5200E+02
  -0.990  0.2092E-22  0.5200E+02
  -0.985  0.1244E-22  0.5200E+02
  -0.980  0.7372E-23  0.5200E+02
  -0.975  0.4359E-23  0.5200E+02
  -0.970  0.2570E-23  0.5200E+02
  -0.965  0.1511E-23  0.5200E+02
  -0.960  0.8865E-24  0.5200E+02
  -0.955  0.5186E-24  0.5200E+02
  -0.950  0.3026E-24  0.5200E+02
  -0.945  0.1761E-24  0.5200E+02
  -0.940  0.1022E-24  0.5200E+02
  -0.935  0.5913E-25  0.5200E+02
  -0.930  0.3413E-25  0.5200E+02
  -0.925  0.1965E-25  0.5200E+02
  -0.920  0.1128E-25  0.5200E+02
  -0.915  0.6462E-26  0.5200E+02
  -0.910  0.3691E-26  0.5200E+02
  -0.905  0.2102E-26  0.5200E+02
  -0.900  0.1194E-26  0.5200E+02
  -0.895  0.6767E-27  0.5200E+02
  -0.890  0.3824E-27  0.5200E+02
  -0.885  0.2155E-27  0.5200E+02
  -0.880  0.1211E-27  0.5200E+02
  -0.875  0.6791E-28  0.5200E+02
  -0.870  0.3797E-28  0.5200E+02
  -0.865  0.2117E-28  0.5200E+02
  -0.860  0.1177E-28  0.5200E+02
  -0.855  0.6530E-29  0.5200E+02
  -0.850  0.3613E-29  0.5200E+02
  -0.845  0.1993E-29  0.5200E+02
  -0.840  0.1097E-29  0.5200E+02
  -0.835  0.6018E-30  0.5200E+02
  -0.830  0.3294E-30  0.5200E+02
  -0.825  0.1798E-30  0.5200E+02
  -0.820  0.9788E-31  0.5200E+02
  -0.815  0.5315E-31  0.5200E+02
  -0.810  0.2878E-31  0.5200E+02
  -0.805  0.1554E-31  0.5200E+02
  -0.800  0.8372E-32  0.5200E+02
  -0.795  0.4497E-32  0.5200E+02
  -0.790  0.2410E-32  0.5200E+02
  -0.785  0.1288E-32  0.5200E+02
  -0.780  0.6861E-33  0.5200E+02
  -0.775  0.3647E-33  0.5200E+02
  -0.770  0.1933E-33  0.5200E+02
  -0.765  0.1022E-33  0.5200E+02
  -0.760  0.5389E-34  0.5200E+02
  -0.755  0.2834E-34  0.5200E+02
  -0.750  0.1486E-34  0.5200E+02
  -0.745  0.7773E-35  0.5200E+02
  -0.740  0.4055E-35  0.5200E+02
  -0.735  0.2110E-35  0.5200E+02
  -0.730  0.1095E-35  0.5200E+02
  -0.725  0.5665E-36  0.5200E+02
  -0.720  0.2924E-36  0.5200E+02
  -0.715  0.1505E-36  0.5200E+02
  -0.710  0.7727E-37  0.5200E+02
  -0.705  0.3956E-37  0.5200E+02
  -0.700  0.2020E-37  0.5200E+02
  -0.695  0.1029E-37  0.5200E+02
  -0.690  0.5226E-38  0.5200E+02
  -0.685  0.2647E-38  0.5200E+02
  -0.680  0.1337E-38  0.5200E+02
  -0.675  0.6739E-39  0.5200E+02
  -0.670  0.3387E-39  0.5200E+02
  -0.665  0.1697E-39  0.5200E+02
  -0.660  0.8484E-40  0.5200E+02
  -0.655  0.4229E-40  0.5200E+02
  -0.650  0.2103E-40  0.5200E+02
  -0.645  0.1043E-40  0.5200E+02
  -0.640  0.5156E-41  0.5200E+02
  -0.635  0.2543E-41  0.5200E+02
  -0.630  0.1251E-41  0.5200E+02
  -0.625  0.6137E-42  0.5200E+02
  -0.620  0.3003E-42  0.5200E+02
  -0.615  0.1465E-42  0.5200E+02
  -0.610  0.7131E-43  0.5200E+02
  -0.605  0.3461E-43  0.5200E+02
  -0.600  0.1676E-43  0.5200E+02
  -0.595  0.8089E-44  0.5200E+02
  -0.590  0.3895E-44  0.5200E+02
  -0.585  0.1870E-44  0.5200E+02
  -0.580  0.8957E-45  0.5200E+02
  -0.575  0.4279E-45  0.5200E+02
  -0.570  0.2038E-45  0.5200E+02
  -0.565  0.9683E-46  0.5200E+02
  -0.560  0.4588E-46  0.5200E+02
  -0.555  0.2168E-46  0.5200E+02
  -0.550  0.1022E-46  0.5200E+02
  -0.545  0.4803E-47  0.5200E+02
  -0.540  0.2252E-47  0.5200E+02
  -0.535  0.1053E-47  0.5200E+02
  -0.530  0.4909E-48  0.5200E+02
  -0.525  0.2283E-48  0.5200E+02
  -0.520  0.1059E-48  0.5200E+02
  -0.515  0.4897E-49  0.5200E+02
  -0.510  0.2259E-49  0.5200E+02
  -0.505  0.1039E-49  0.5200E+02
  -0.500  0.4770E-50  0.5200E+02
  -0.495  0.2183E-50  0.5200E+02
  -0.490  0.9962E-51  0.5200E+02
  -0.485  0.4535E-51  0.5200E+02
  -0.480  0.2059E-51  0.5200E+02
  -0.475  0.9320E-52  0.5200E+02
  -0.470  0.4209E-52  0.5200E+02
  -0.465  0.1895E-52  0.5200E+02
  -0.460  0.8512E-53  0.5200E+02
  -0.455  0.3813E-53  0.5200E+02
  -0.450  0.1703E-53  0.5200E+02
  -0.445  0.7589E-54  0.5200E+02
  -0.440  0.3372E-54  0.5200E+02
  -0.435  0.1494E-54  0.5200E+02
  -0.430  0.6605E-55  0.5200E+02
  -0.425  0.2912E-55  0.5200E+02
  -0.420  0.1280E-55  0.5200E+02
  -0.415  0.5612E-56  0.5200E+02
  -0.410  0.2454E-56  0.5200E+02
  -0.405  0.1070E-56  0.5200E+02
  -0.400  0.4654E-57  0.5200E+02
  -0.395  0.2019E-57  0.5200E+02
  -0.390  0.8734E-58  0.5200E+02
  -0.385  0.3768E-58  0.5200E+02
  -0.380  0.1621E-58  0.5200E+02
  -0.375  0.6958E-59  0.5200E+02
  -0.370  0.2978E-59  0.5200E+02
  -0.365  0.1271E-59  0.5200E+02
  -0.360  0.5411E-60  0.5200E+02
  -0.355  0.2297E-60  0.5200E+02
  -0.350  0.9728E-61  0.5200E+02
  -0.345  0.4108E-61  0.5200E+02
  -0.340  0.1730E-61  0.5200E+02
  -0.335  0.7267E-62  0.5200E+02
  -0.330  0.3044E-62  0.5200E+02
  -0.325  0.1272E-62  0.5200E+02
  -0.320  0.5300E-63  0.5200E+02
  -0.315  0.2202E-63  0.5200E+02
  -0.310  0.9127E-64  0.5200E+02
  -0.305  0.3773E-64  0.5200E+02
  -0.300  0.1555E-64  0.5200E+02
  -0.295  0.6394E-65  0.5200E+02
  -0.290  0.2622E-65  0.5200E+02
  -0.285  0.1072E-65  0.5200E+02
  -0.280  0.4372E-66  0.5200E+02
  -0.275  0.1778E-66  0.5200E+02
  -0.270  0.7213E-67  0.5200E+02
  -0.265  0.2918E-67  0.5200E+02
  -0.260  0.1177E-67  0.5200E+02
  -0.255  0.4738E-68  0.5200E+02
  -0.250  0.1901E-68  0.5200E+02
  -0.245  0.7610E-69  0.5200E+02
  -0.240  0.3038E-69  0.5200E+02
  -0.235  0.1209E-69  0.5200E+02
  -0.230  0.4801E-70  0.5200E+02
  -0.225  0.1901E-70  0.5200E+02
  -0.220  0.7508E-71  0.5200E+02
  -0.215  0.2957E-71  0.5200E+02
  -0.210  0.1161E-71  0.5200E+02
  -0.205  0.4550E-72  0.5200E+02
  -0.200  0.1778E-72  0.5200E+02
  -0.195  0.6926E-73  0.5200E+02
  -0.190  0.2691E-73  0.5200E+02
  -0.185  0.1043E-73  0.5200E+02
  -0.180  0.4032E-74  0.5200E+02
  -0.175  0.1554E-74  0.5200E+02
  -0.170  0.5975E-75  0.5200E+02
  -0.165  0.2291E-75  0.5200E+02
  -0.160  0.8760E-76  0.5200E+02
  -0.155  0.3341E-76  0.5200E+02
  -0.150  0.1271E-76  0.5200E+02
  -0.145  0.4820E-77  0.5200E+02
  -0.140  0.1823E-77  0.5200E+02
  -0.135  0.6879E-78  0.5200E+02
  -0.130  0.2588E-78  0.5200E+02
  -0.125  0.9713E-79  0.5200E+02
  -0.120  0.3635E-79  0.5200E+02
  -0.115  0.1357E-79  0.5200E+02
  -0.110  0.5052E-80  0.5200E+02
  -0.105  0.1876E-80  0.5200E+02
  -0.100  0.6949E-81  0.5200E+02
  -0.095  0.2570E-81  0.5200E+02
  -0.090  0.9504E-82  0.5200E+02
  -0.085  0.3530E-82  0.5200E+02
  -0.080  0.1332E-82  0.5200E+02
  -0.075  0.5260E-83  0.5200E+02
  -0.070  0.2310E-83  0.5200E+02
  -0.065  0.1234E-83  0.5200E+02
  -0.060  0.8421E-84  0.5200E+02
  -0.055  0.7000E-84  0.5200E+02
  -0.050  0.6486E-84  0.5200E+02
  -0.045  0.6300E-84  0.5200E+02
  -0.040  0.6233E-84  0.5200E+02
  -0.035  0.6210E-84  0.5200E+02
  -0.030  0.6202E-84  0.5200E+02
  -0.025  0.6199E-84  0.5200E+02
  -0.020  0.6198E-84  0.5200E+02
  -0.015  0.6198E-84  0.5200E+02
  -0.010  0.6198E-84  0.5200E+02
  -0.005  0.6198E-84  0.5200E+02
  -0.000  0.6198E-84  0.5200E+02
   0.005  0.6198E-84  0.5200E+02
   0.010  0.6198E-84  0.5200E+02
   0.015  0.6198E-84  0.5200E+02
   0.020  0.6198E-84  0.5200E+02
   0.025  0.6198E-84  0.5200E+02
   0.030  0.6198E-84  0.5200E+02
   0.035  0.6198E-84  0.5200E+02
   0.040  0.6198E-84  0.5200E+02
   0.045  0.6198E-84  0.5200E+02
   0.050  0.6198E-84  0.5200E+02
   0.055  0.6198E-84  0.5200E+02
   0.060  0.6198E-84  0.5200E+02
   0.065  0.6198E-84  0.5200E+02
   0.070  0.6198E-84  0.5200E+02
   0.075  0.6198E-84  0.5200E+02
   0.080  0.6198E-84  0.5200E+02
   0.085  0.6198E-84  0.5200E+02
   0.090  0.6198E-84  0.5200E+02
   0.095  0.6198E-84  0.5200E+02
   0.100  0.6198E-84  0.5200E+02
   0.105  0.6198E-84  0.5200E+02
   0.110  0.6198E-84  0.5200E+02
   0.115  0.6198E-84  0.5200E+02
   0.120  0.6198E-84  0.5200E+02
   0.125  0.6198E-84  0.5200E+02
   0.130  0.6198E-84  0.5200E+02
   0.135  0.6198E-84  0.5200E+02
   0.140  0.6198E-84  0.5200E+02
   0.145  0.6198E-84  0.5200E+02
   0.150  0.6198E-84  0.5200E+02
   0.155  0.6198E-84  0.5200E+02
   0.160  0.6198E-84  0.5200E+02
   0.165  0.6198E-84  0.5200E+02
   0.170  0.6198E-84  0.5200E+02
   0.175  0.6198E-84  0.5200E+02
   0.180  0.6198E-84  0.5200E+02
   0.185  0.6198E-84  0.5200E+02
   0.190  0.6198E-84  0.5200E+02
   0.195  0.6198E-84  0.5200E+02
   0.200  0.6198E-84  0.5200E+02
   0.205  0.6198E-84  0.5200E+02
   0.210  0.6198E-84  0.5200E+02
   0.215  0.6198E-84  0.5200E+02
   0.220  0.6198E-84  0.5200E+02
   0.225  0.6198E-84  0.5200E+02
   0.230  0.6198E-84  0.5200E+02
   0.235  0.6198E-84  0.5200E+02
   0.240  0.6198E-84  0.5200E+02
   0.245  0.6198E-84  0.5200E+02
   0.250  0.6198E-84  0.5200E+02
   0.255  0.6198E-84  0.5200E+02
   0.260  0.6198E-84  0.5200E+02
   0.265  0.6198E-84  0.5200E+02
   0.270  0.6198E-84  0.5200E+02
   0.275  0.6198E-84  0.5200E+02
   0.280  0.6198E-84  0.5200E+02
   0.285  0.6198E-84  0.5200E+02
   0.290  0.6198E-84  0.5200E+02
   0.295  0.6198E-84  0.5200E+02
   0.300  0.6198E-84  0.5200E+02
   0.305  0.6198E-84  0.5200E+02
   0.310  0.6198E-84  0.5200E+02
   0.315  0.6198E-84  0.5200E+02
   0.320  0.6198E-84  0.5200E+02
   0.325  0.6198E-84  0.5200E+02
   0.330  0.6198E-84  0.5200E+02
   0.335  0.6198E-84  0.5200E+02
   0.340  0.6198E-84  0.5200E+02
   0.345  0.6198E-84  0.5200E+02
   0.350  0.6198E-84  0.5200E+02
   0.355  0.6198E-84  0.5200E+02
   0.360  0.6198E-84  0.5200E+02
   0.365  0.6198E-84  0.5200E+02
   0.370  0.6198E-84  0.5200E+02
   0.375  0.6198E-84  0.5200E+02
   0.380  0.6198E-84  0.5200E+02
   0.385  0.6198E-84  0.5200E+02
   0.390  0.6198E-84  0.5200E+02
   0.395  0.6198E-84  0.5200E+02
   0.400  0.6198E-84  0.5200E+02
   0.405  0.6198E-84  0.5200E+02
   0.410  0.6198E-84  0.5200E+02
   0.415  0.6198E-84  0.5200E+02
   0.420  0.6198E-84  0.5200E+02
   0.425  0.6198E-84  0.5200E+02
   0.430  0.6198E-84  0.5200E+02
   0.435  0.6198E-84  0.5200E+02
   0.440  0.6198E-84  0.5200E+02
   0.445  0.6198E-84  0.5200E+02
   0.450  0.6198E-84  0.5200E+02
   0.455  0.6198E-84  0.5200E+02
   0.460  0.6198E-84  0.5200E+02
   0.465  0.6198E-84  0.5200E+02
   0.470  0.6198E-84  0.5200E+02
   0.475  0.6198E-84  0.5200E+02
   0.480  0.6198E-84  0.5200E+02
   0.485  0.6198E-84  0.5200E+02
   0.490  0.6198E-84  0.5200E+02
   0.495  0.6198E-84  0.5200E+02
   0.500  0.6198E-84  0.5200E+02
   0.505  0.6198E-84  0.5200E+02
   0.510  0.6198E-84  0.5200E+02
   0.515  0.6198E-84  0.5200E+02
   0.520  0.6198E-84  0.5200E+02
   0.525  0.6198E-84  0.5200E+02
   0.530  0.6198E-84  0.5200E+02
   0.535  0.6200E-84  0.5200E+02
   0.540  0.6203E-84  0.5200E+02
   0.545  0.6214E-84  0.5200E+02
   0.550  0.6244E-84  0.5200E+02
   0.555  0.6328E-84  0.5200E+02
   0.560  0.6563E-84  0.5200E+02
   0.565  0.7212E-84  0.5200E+02
   0.570  0.9004E-84  0.5200E+02
   0.575  0.1394E-83  0.5200E+02
   0.580  0.2749E-83  0.5200E+02
   0.585  0.6459E-83  0.5200E+02
   0.590  0.1659E-82  0.5200E+02
   0.595  0.4419E-82  0.5200E+02
   0.600  0.1191E-81  0.5200E+02
   0.605  0.3222E-81  0.5200E+02
   0.610  0.8706E-81  0.5200E+02
   0.615  0.2348E-80  0.5200E+02
   0.620  0.6318E-80  0.5200E+02
   0.625  0.1696E-79  0.5200E+02
   0.630  0.4539E-79  0.5200E+02
   0.635  0.1212E-78  0.5200E+02
   0.640  0.3226E-78  0.5200E+02
   0.645  0.8564E-78  0.5200E+02
   0.650  0.2268E-77  0.5200E+02
   0.655  0.5989E-77  0.5200E+02
   0.660  0.1577E-76  0.5200E+02
   0.665  0.4143E-76  0.5200E+02
   0.670  0.1085E-75  0.5200E+02
   0.675  0.2835E-75  0.5200E+02
   0.680  0.7388E-75  0.5200E+02
   0.685  0.1920E-74  0.5200E+02
   0.690  0.4975E-74  0.5200E+02
   0.695  0.1286E-73  0.5200E+02
   0.700  0.3314E-73  0.5200E+02
   0.705  0.8520E-73  0.5200E+02
   0.710  0.2184E-72  0.5200E+02
   0.715  0.5585E-72  0.5200E+02
   0.720  0.1424E-71  0.5200E+02
   0.725  0.3621E-71  0.5200E+02
   0.730  0.9185E-71  0.5200E+02
   0.735  0.2323E-70  0.5200E+02
   0.740  0.5860E-70  0.5200E+02
   0.745  0.1474E-69  0.5200E+02
   0.750  0.3699E-69  0.5200E+02
   0.755  0.9257E-69  0.5200E+02
   0.760  0.2310E-68  0.5200E+02
   0.765  0.5750E-68  0.5200E+02
   0.770  0.1427E-67  0.5200E+02
   0.775  0.3533E-67  0.5200E+02
   0.780  0.8722E-67  0.5200E+02
   0.785  0.2148E-66  0.5200E+02
   0.790  0.5273E-66  0.5200E+02
   0.795  0.1291E-65  0.5200E+02
   0.800  0.3154E-65  0.5200E+02
   0.805  0.7683E-65  0.5200E+02
   0.810  0.1866E-64  0.5200E+02
   0.815  0.4522E-64  0.5200E+02
   0.820  0.1093E-63  0.5200E+02
   0.825  0.2633E-63  0.5200E+02
   0.830  0.6327E-63  0.5200E+02
   0.835  0.1516E-62  0.5200E+02
   0.840  0.3625E-62  0.5200E+02
   0.845  0.8641E-62  0.5200E+02
   0.850  0.2054E-61  0.5200E+02
   0.855  0.4871E-61  0.5200E+02
   0.860  0.1152E-60  0.5200E+02
   0.865  0.2717E-60  0.5200E+02
   0.870  0.6390E-60  0.5200E+02
   0.875  0.1499E-59  0.5200E+02
   0.880  0.3506E-59  0.5200E+02
   0.885  0.8181E-59  0.5200E+02
   0.890  0.1904E-58  0.5200E+02
   0.895  0.4417E-58  0.5200E+02
   0.900  0.1022E-57  0.5200E+02
   0.905  0.2360E-57  0.5200E+02
   0.910  0.5432E-57  0.5200E+02
   0.915  0.1247E-56  0.5200E+02
   0.920  0.2855E-56  0.5200E+02
   0.925  0.6520E-56  0.5200E+02
   0.930  0.1485E-55  0.5200E+02
   0.935  0.3372E-55  0.5200E+02
   0.940  0.7638E-55  0.5200E+02
   0.945  0.1725E-54  0.5200E+02
   0.950  0.3887E-54  0.5200E+02
   0.955  0.8734E-54  0.5200E+02
   0.960  0.1957E-53  0.5200E+02
   0.965  0.4374E-53  0.5200E+02
   0.970  0.9748E-53  0.5200E+02
   0.975  0.2167E-52  0.5200E+02
   0.980  0.4804E-52  0.5200E+02
   0.985  0.1062E-51  0.5200E+02
   0.990  0.2342E-51  0.5200E+02
   0.995  0.5150E-51  0.5200E+02
   1.000  0.1129E-50  0.5200E+02
   1.005  0.2470E-50  0.5200E+02
   1.010  0.5389E-50  0.5200E+02
   1.015  0.1172E-49  0.5200E+02
   1.020  0.2544E-49  0.5200E+02
   1.025  0.5504E-49  0.5200E+02
   1.030  0.1188E-48  0.5200E+02
   1.035  0.2557E-48  0.5200E+02
   1.040  0.5488E-48  0.5200E+02
   1.045  0.1175E-47  0.5200E+02
   1.050  0.2508E-47  0.5200E+02
   1.055  0.5341E-47  0.5200E+02
   1.060  0.1134E-46  0.5200E+02
   1.065  0.2402E-46  0.5200E+02
   1.070  0.5073E-46  0.5200E+02
   1.075  0.1069E-45  0.5200E+02
   1.080  0.2245E-45  0.5200E+02
   1.085  0.4704E-45  0.5200E+02
   1.090  0.9830E-45  0.5200E+02
   1.095  0.2049E-44  0.5200E+02
   1.100  0.4258E-44  0.5200E+02
   1.105  0.8826E-44  0.5200E+02
   1.110  0.1825E-43  0.5200E+02
   1.115  0.3762E-43  0.5200E+02
   1.120  0.7735E-43  0.5200E+02
   1.125  0.1586E-42  0.5200E+02
   1.130  0.3244E-42  0.5200E+02
   1.135  0.6617E-42  0.5200E+02
   1.140  0.1346E-41  0.5200E+02
   1.145  0.2731E-41  0.5200E+02
   1.150  0.5526E-41  0.5200E+02
   1.155  0.1115E-40  0.5200E+02
   1.160  0.2244E-40  0.5200E+02
   1.165  0.4505E-40  0.5200E+02
   1.170  0.9017E-40  0.5200E+02
   1.175  0.1800E-39  0.5200E+02
   1.180  0.3584E-39  0.5200E+02
   1.185  0.7118E-39  0.5200E+02
   1.190  0.1410E-38  0.5200E+02
   1.195  0.2784E-38  0.5200E+02
   1.200  0.5485E-38  0.5200E+02
   1.205  0.1077E-37  0.5200E+02
   1.210  0.2111E-37  0.5200E+02
   1.215  0.4125E-37  0.5200E+02
   1.220  0.8040E-37  0.5200E+02
   1.225  0.1563E-36  0.5200E+02
   1.230  0.3029E-36  0.5200E+02
   1.235  0.5856E-36  0.5200E+02
   1.240  0.1129E-35  0.5200E+02
   1.245  0.2171E-35  0.5200E+02
   1.250  0.4164E-35  0.5200E+02
   1.255  0.7964E-35  0.5200E+02
   1.260  0.1519E-34  0.5200E+02
   1.265  0.2890E-34  0.5200E+02
   1.270  0.5484E-34  0.5200E+02
   1.275  0.1038E-33  0.5200E+02
   1.280  0.1958E-33  0.5200E+02
   1.285  0.3686E-33  0.5200E+02
   1.290  0.6919E-33  0.5200E+02
   1.295  0.1295E-32  0.5200E+02
   1.300  0.2419E-32  0.5200E+02
   1.305  0.4504E-32  0.5200E+02
   1.310  0.8365E-32  0.5200E+02
   1.315  0.1549E-31  0.5200E+02
   1.320  0.2862E-31  0.5200E+02
   1.325  0.5273E-31  0.5200E+02
   1.330  0.9689E-31  0.5200E+02
   1.335  0.1776E-30  0.5200E+02
   1.340  0.3245E-30  0.5200E+02
   1.345  0.5915E-30  0.5200E+02
   1.350  0.1075E-29  0.5200E+02
   1.355  0.1950E-29  0.5200E+02
   1.360  0.3525E-29  0.5200E+02
   1.365  0.6358E-29  0.5200E+02
   1.370  0.1143E-28  0.5200E+02
   1.375  0.2051E-28  0.5200E+02
   1.380  0.3670E-28  0.5200E+02
   1.385  0.6548E-28  0.5200E+02
   1.390  0.1165E-27  0.5200E+02
   1.395  0.2068E-27  0.5200E+02
   1.400  0.3660E-27  0.5200E+02
   1.405  0.6462E-27  0.5200E+02
   1.410  0.1138E-26  0.5200E+02
   1.415  0.1998E-26  0.5200E+02
   1.420  0.3499E-26  0.5200E+02
   1.425  0.6111E-26  0.5200E+02
   1.430  0.1064E-25  0.5200E+02
   1.435  0.1849E-25  0.5200E+02
   1.440  0.3204E-25  0.5200E+02
   1.445  0.5538E-25  0.5200E+02
   1.450  0.9544E-25  0.5200E+02
   1.455  0.1641E-24  0.5200E+02
   1.460  0.2813E-24  0.5200E+02
   1.465  0.4809E-24  0.5200E+02
   1.470  0.8201E-24  0.5200E+02
   1.475  0.1395E-23  0.5200E+02
   1.480  0.2366E-23  0.5200E+02
   1.485  0.4002E-23  0.5200E+02
   1.490  0.6753E-23  0.5200E+02
   1.495  0.1136E-22  0.5200E+02
   1.500  0.1907E-22  0.5200E+02
   1.505  0.3192E-22  0.5200E+02
   1.510  0.5329E-22  0.5200E+02
   1.515  0.8873E-22  0.5200E+02
   1.520  0.1473E-21  0.5200E+02
   1.525  0.2440E-21  0.5200E+02
   1.530  0.4031E-21  0.5200E+02
   1.535  0.6640E-21  0.5200E+02
   1.540  0.1091E-20  0.5200E+02
   1.545  0.1788E-20  0.5200E+02
   1.550  0.2922E-20  0.5200E+02
   1.555  0.4763E-20  0.5200E+02
   1.560  0.7743E-20  0.5200E+02
   1.565  0.1255E-19  0.5200E+02
   1.570  0.2030E-19  0.5200E+02
   1.575  0.3274E-19  0.5200E+02
   1.580  0.5267E-19  0.5200E+02
   1.585  0.8451E-19  0.5200E+02
   1.590  0.1352E-18  0.5200E+02
   1.595  0.2158E-18  0.5200E+02
   1.600  0.3435E-18  0.5200E+02
   1.605  0.5453E-18  0.5200E+02
   1.610  0.8633E-18  0.5200E+02
   1.615  0.1363E-17  0.5200E+02
   1.620  0.2147E-17  0.5200E+02
   1.625  0.3372E-17  0.5200E+02
   1.630  0.5283E-17  0.5200E+02
   1.635  0.8256E-17  0.5200E+02
   1.640  0.1287E-16  0.5200E+02
   1.645  0.2000E-16  0.5200E+02
   1.650  0.3100E-16  0.5200E+02
   1.655  0.4793E-16  0.5200E+02
   1.660  0.7391E-16  0.5200E+02
   1.665  0.1137E-15  0.5200E+02
   1.670  0.1744E-15  0.5200E+02
   1.675  0.2668E-15  0.5200E+02
   1.680  0.4071E-15  0.5200E+02
   1.685  0.6196E-15  0.5200E+02
   1.690  0.9404E-15  0.5200E+02
   1.695  0.1424E-14  0.5200E+02
   1.700  0.2150E-14  0.5200E+02
   1.705  0.3238E-14  0.5200E+02
   1.710  0.4863E-14  0.5200E+02
   1.715  0.7286E-14  0.5200E+02
   1.720  0.1089E-13  0.5200E+02
   1.725  0.1622E-13  0.5200E+02
   1.730  0.2411E-13  0.5200E+02
   1.735  0.3575E-13  0.5200E+02
   1.740  0.5286E-13  0.5200E+02
   1.745  0.7795E-13  0.5200E+02
   1.750  0.1147E-12  0.5200E+02
   1.755  0.1682E-12  0.5200E+02
   1.760  0.2461E-12  0.5200E+02
   1.765  0.3592E-12  0.5200E+02
   1.770  0.5229E-12  0.5200E+02
   1.775  0.7591E-12  0.5200E+02
   1.780  0.1099E-11  0.5200E+02
   1.785  0.1587E-11  0.5200E+02
   1.790  0.2287E-11  0.5200E+02
   1.795  0.3285E-11  0.5200E+02
   1.800  0.4708E-11  0.5200E+02
   1.805  0.6729E-11  0.5200E+02
   1.810  0.9592E-11  0.5200E+02
   1.815  0.1364E-10  0.5200E+02
   1.820  0.1934E-10  0.5200E+02
   1.825  0.2736E-10  0.5200E+02
   1.830  0.3860E-10  0.5200E+02
   1.835  0.5431E-10  0.5200E+02
   1.840  0.7622E-10  0.5200E+02
   1.845  0.1067E-09  0.5200E+02
   1.850  0.1490E-09  0.5200E+02
   1.855  0.2075E-09  0.5200E+02
   1.860  0.2882E-09  0.5200E+02
   1.865  0.3992E-09  0.5200E+02
   1.870  0.5517E-09  0.5200E+02
   1.875  0.7603E-09  0.5200E+02
   1.880  0.1045E-08  0.5200E+02
   1.885  0.1433E-08  0.5200E+02
   1.890  0.1960E-08  0.5200E+02
   1.895  0.2674E-08  0.5200E+02
   1.900  0.3638E-08  0.5200E+02
   1.905  0.4937E-08  0.5200E+02
   1.910  0.6682E-08  0.5200E+02
   1.915  0.9021E-08  0.5200E+02
   1.920  0.1215E-07  0.5200E+02
   1.925  0.1632E-07  0.5200E+02
   1.930  0.2186E-07  0.5200E+02
   1.935  0.2921E-07  0.5200E+02
   1.940  0.3893E-07  0.5200E+02
   1.945  0.5176E-07  0.5200E+02
   1.950  0.6864E-07  0.5200E+02
   1.955  0.9078E-07  0.5200E+02
   1.960  0.1198E-06  0.5200E+02
   1.965  0.1576E-06  0.5200E+02
   1.970  0.2068E-06  0.5200E+02
   1.975  0.2708E-06  0.5200E+02
   1.980  0.3536E-06  0.5200E+02
   1.985  0.4606E-06  0.5200E+02
   1.990  0.5983E-06  0.5200E+02
   1.995  0.7754E-06  0.5200E+02
   2.000  0.1002E-05  0.5200E+02
   2.005  0.1292E-05  0.5200E+02
   2.010  0.1662E-05  0.5200E+02
   2.015  0.2132E-05  0.5200E+02
   2.020  0.2727E-05  0.5200E+02
   2.025  0.3481E-05  0.5200E+02
   2.030  0.4431E-05  0.5200E+02
   2.035  0.5626E-05  0.5200E+02
   2.040  0.7126E-05  0.5200E+02
   2.045  0.9003E-05  0.5200E+02
   2.050  0.1135E-04  0.5200E+02
   2.055  0.1426E-04  0.5200E+02
   2.060  0.1788E-04  0.5200E+02
   2.065  0.2236E-04  0.5200E+02
   2.070  0.2790E-04  0.5200E+02
   2.075  0.3472E-04  0.5200E+02
   2.080  0.4310E-04  0.5200E+02
   2.085  0.5336E-04  0.5200E+02
   2.090  0.6590E-04  0.5200E+02
   2.095  0.8119E-04  0.5200E+02
   2.100  0.9977E-04  0.5200E+02
   2.105  0.1223E-03  0.5200E+02
   2.110  0.1496E-03  0.5200E+02
   2.115  0.1824E-03  0.5200E+02
   2.120  0.2219E-03  0.5200E+02
   2.125  0.2694E-03  0.5200E+02
   2.130  0.3261E-03  0.5200E+02
   2.135  0.3938E-03  0.5200E+02
   2.140  0.4744E-03  0.5200E+02
   2.145  0.5701E-03  0.5200E+02
   2.150  0.6834E-03  0.5200E+02
   2.155  0.8171E-03  0.5200E+02
   2.160  0.9747E-03  0.5200E+02
   2.165  0.1160E-02  0.5200E+02
   2.170  0.1377E-02  0.5200E+02
   2.175  0.1630E-02  0.5200E+02
   2.180  0.1925E-02  0.5200E+02
   2.185  0.2268E-02  0.5200E+02
   2.190  0.2666E-02  0.5200E+02
   2.195  0.3127E-02  0.5200E+02
   2.200  0.3657E-02  0.5200E+02
   2.205  0.4267E-02  0.5200E+02
   2.210  0.4968E-02  0.5200E+02
   2.215  0.5769E-02  0.5200E+02
   2.220  0.6683E-02  0.5200E+02
   2.225  0.7723E-02  0.5200E+02
   2.230  0.8905E-02  0.5200E+02
   2.235  0.1024E-01  0.5200E+02
   2.240  0.1175E-01  0.5200E+02
   2.245  0.1345E-01  0.5200E+02
   2.250  0.1536E-01  0.5200E+02
   2.255  0.1751E-01  0.5200E+02
   2.260  0.1990E-01  0.5200E+02
   2.265  0.2257E-01  0.5200E+02
   2.270  0.2553E-01  0.5200E+02
   2.275  0.2882E-01  0.5200E+02
   2.280  0.3245E-01  0.5200E+02
   2.285  0.3647E-01  0.5200E+02
   2.290  0.4088E-01  0.5200E+02
   2.295  0.4572E-01  0.5200E+02
   2.300  0.5102E-01  0.5200E+02
   2.305  0.5681E-01  0.5200E+02
   2.310  0.6312E-01  0.5200E+02
   2.315  0.6997E-01  0.5200E+02
   2.320  0.7739E-01  0.5200E+02
   2.325  0.8541E-01  0.5200E+02
   2.330  0.9406E-01  0.5200E+02
   2.335  0.1034E+00  0.5200E+02
   2.340  0.1133E+00  0.5201E+02
   2.345  0.1240E+00  0.5201E+02
   2.350  0.1354E+00  0.5201E+02
   2.355  0.1476E+00  0.5201E+02
   2.360  0.1605E+00  0.5201E+02
   2.365  0.1741E+00  0.5201E+02
   2.370  0.1886E+00  0.5201E+02
   2.375  0.2039E+00  0.5201E+02
   2.380  0.2199E+00  0.5201E+02
   2.385  0.2368E+00  0.5201E+02
   2.390  0.2545E+00  0.5201E+02
   2.395  0.2730E+00  0.5202E+02
   2.400  0.2923E+00  0.5202E+02
   2.405  0.3124E+00  0.5202E+02
   2.410  0.3332E+00  0.5202E+02
   2.415  0.3549E+00  0.5202E+02
   2.420  0.3773E+00  0.5202E+02
   2.425  0.4005E+00  0.5203E+02
   2.430  0.4243E+00  0.5203E+02
   2.435  0.4489E+00  0.5203E+02
   2.440  0.4742E+00  0.5203E+02
   2.445  0.5001E+00  0.5204E+02
   2.450  0.5267E+00  0.5204E+02
   2.455  0.5539E+00  0.5204E+02
   2.460  0.5816E+00  0.5204E+02
   2.465  0.6099E+00  0.5205E+02
   2.470  0.6388E+00  0.5205E+02
   2.475  0.6682E+00  0.5205E+02
   2.480  0.6980E+00  0.5206E+02
   2.485  0.7284E+00  0.5206E+02
   2.490  0.7591E+00  0.5206E+02
   2.495  0.7904E+00  0.5207E+02
   2.500  0.8220E+00  0.5207E+02
   2.505  0.8540E+00  0.5208E+02
   2.510  0.8864E+00  0.5208E+02
   2.515  0.9191E+00  0.5209E+02
   2.520  0.9522E+00  0.5209E+02
   2.525  0.9857E+00  0.5210E+02
   2.530  0.1019E+01  0.5210E+02
   2.535  0.1054E+01  0.5211E+02
   2.540  0.1088E+01  0.5211E+02
   2.545  0.1123E+01  0.5212E+02
   2.550  0.1158E+01  0.5212E+02
   2.555  0.1193E+01  0.5213E+02
   2.560  0.1228E+01  0.5213E+02
   2.565  0.1264E+01  0.5214E+02
   2.570  0.1300E+01  0.5215E+02
   2.575  0.1336E+01  0.5215E+02
   2.580  0.1373E+01  0.5216E+02
   2.585  0.1409E+01  0.5217E+02
   2.590  0.1446E+01  0.5218E+02
   2.595  0.1483E+01  0.5218E+02
   2.600  0.1520E+01  0.5219E+02
   2.605  0.1557E+01  0.5220E+02
   2.610  0.1595E+01  0.5221E+02
   2.615  0.1632E+01  0.5221E+02
   2.620  0.1669E+01  0.5222E+02
   2.625  0.1706E+01  0.5223E+02
   2.630  0.1744E+01  0.5224E+02
   2.635  0.1781E+01  0.5225E+02
   2.640  0.1818E+01  0.5226E+02
   2.645  0.1854E+01  0.5227E+02
   2.650  0.1891E+01  0.5228E+02
   2.655  0.1927E+01  0.5229E+02
   2.660  0.1963E+01  0.5230E+02
   2.665  0.1999E+01  0.5231E+02
   2.670  0.2034E+01  0.5232E+02
   2.675  0.2069E+01  0.5233E+02
   2.680  0.2103E+01  0.5234E+02
   2.685  0.2137E+01  0.5235E+02
   2.690  0.2171E+01  0.5236E+02
   2.695  0.2204E+01  0.5237E+02
   2.700  0.2236E+01  0.5238E+02
   2.705  0.2268E+01  0.5239E+02
   2.710  0.2299E+01  0.5240E+02
   2.715  0.2329E+01  0.5242E+02
   2.720  0.2359E+01  0.5243E+02
   2.725  0.2388E+01  0.5244E+02
   2.730  0.2417E+01  0.5245E+02
   2.735  0.2445E+01  0.5246E+02
   2.740  0.2472E+01  0.5248E+02
   2.745  0.2498E+01  0.5249E+02
   2.750  0.2524E+01  0.5250E+02
   2.755  0.2549E+01  0.5251E+02
   2.760  0.2574E+01  0.5253E+02
   2.765  0.2597E+01  0.5254E+02
   2.770  0.2620E+01  0.5255E+02
   2.775  0.2643E+01  0.5257E+02
   2.780  0.2664E+01  0.5258E+02
   2.785  0.2685E+01  0.5259E+02
   2.790  0.2706E+01  0.5261E+02
   2.795  0.2725E+01  0.5262E+02
   2.800  0.2744E+01  0.5263E+02
   2.805  0.2763E+01  0.5265E+02
   2.810  0.2781E+01  0.5266E+02
   2.815  0.2798E+01  0.5268E+02
   2.820  0.2814E+01  0.5269E+02
   2.825  0.2830E+01  0.5270E+02
   2.830  0.2846E+01  0.5272E+02
   2.835  0.2861E+01  0.5273E+02
   2.840  0.2875E+01  0.5275E+02
   2.845  0.2889E+01  0.5276E+02
   2.850  0.2902E+01  0.5278E+02
   2.855  0.2914E+01  0.5279E+02
   2.860  0.2927E+01  0.5280E+02
   2.865  0.2938E+01  0.5282E+02
   2.870  0.2950E+01  0.5283E+02
   2.875  0.2961E+01  0.5285E+02
   2.880  0.2971E+01  0.5286E+02
   2.885  0.2982E+01  0.5288E+02
   2.890  0.2991E+01  0.5289E+02
   2.895  0.3001E+01  0.5291E+02
   2.900  0.3011E+01  0.5292E+02
   2.905  0.3020E+01  0.5294E+02
   2.910  0.3029E+01  0.5295E+02
   2.915  0.3038E+01  0.5297E+02
   2.920  0.3047E+01  0.5298E+02
   2.925  0.3056E+01  0.5300E+02
   2.930  0.3065E+01  0.5301E+02
   2.935  0.3074E+01  0.5303E+02
   2.940  0.3083E+01  0.5305E+02
   2.945  0.3092E+01  0.5306E+02
   2.950  0.3102E+01  0.5308E+02
   2.955  0.3112E+01  0.5309E+02
   2.960  0.3122E+01  0.5311E+02
   2.965  0.3132E+01  0.5312E+02
   2.970  0.3143E+01  0.5314E+02
   2.975  0.3154E+01  0.5315E+02
   2.980  0.3166E+01  0.5317E+02
   2.985  0.3178E+01  0.5319E+02
   2.990  0.3191E+01  0.5320E+02
   2.995  0.3204E+01  0.5322E+02
   3.000  0.3217E+01  0.5323E+02
   3.005  0.3231E+01  0.5325E+02
   3.010  0.3246E+01  0.5327E+02
   3.015  0.3261E+01  0.5328E+02
   3.020  0.3276E+01  0.5330E+02
   3.025  0.3292E+01  0.5332E+02
   3.030  0.3308E+01  0.5333E+02
   3.035  0.3325E+01  0.5335E+02
   3.040  0.3342E+01  0.5337E+02
   3.045  0.3360E+01  0.5338E+02
   3.050  0.3378E+01  0.5340E+02
   3.055  0.3396E+01  0.5342E+02
   3.060  0.3415E+01  0.5343E+02
   3.065  0.3433E+01  0.5345E+02
   3.070  0.3452E+01  0.5347E+02
   3.075  0.3472E+01  0.5349E+02
   3.080  0.3491E+01  0.5350E+02
   3.085  0.3510E+01  0.5352E+02
   3.090  0.3530E+01  0.5354E+02
   3.095  0.3550E+01  0.5356E+02
   3.100  0.3569E+01  0.5357E+02
   3.105  0.3589E+01  0.5359E+02
   3.110  0.3609E+01  0.5361E+02
   3.115  0.3629E+01  0.5363E+02
   3.120  0.3649E+01  0.5365E+02
   3.125  0.3668E+01  0.5366E+02
   3.130  0.3688E+01  0.5368E+02
   3.135  0.3708E+01  0.5370E+02
   3.140  0.3727E+01  0.5372E+02
   3.145  0.3747E+01  0.5374E+02
   3.150  0.3766E+01  0.5376E+02
   3.155  0.3785E+01  0.5378E+02
   3.160  0.3804E+01  0.5380E+02
   3.165  0.3823E+01  0.5381E+02
   3.170  0.3842E+01  0.5383E+02
   3.175  0.3861E+01  0.5385E+02
   3.180  0.3880E+01  0.5387E+02
   3.185  0.3898E+01  0.5389E+02
   3.190  0.3917E+01  0.5391E+02
   3.195  0.3935E+01  0.5393E+02
   3.200  0.3953E+01  0.5395E+02
   3.205  0.3971E+01  0.5397E+02
   3.210  0.3989E+01  0.5399E+02
   3.215  0.4007E+01  0.5401E+02
   3.220  0.4025E+01  0.5403E+02
   3.225  0.4042E+01  0.5405E+02
   3.230  0.4059E+01  0.5407E+02
   3.235  0.4076E+01  0.5409E+02
   3.240  0.4092E+01  0.5411E+02
   3.245  0.4109E+01  0.5413E+02
   3.250  0.4125E+01  0.5415E+02
   3.255  0.4141E+01  0.5417E+02
   3.260  0.4156E+01  0.5420E+02
   3.265  0.4171E+01  0.5422E+02
   3.270  0.4186E+01  0.5424E+02
   3.275  0.4200E+01  0.5426E+02
   3.280  0.4214E+01  0.5428E+02
   3.285  0.4228E+01  0.5430E+02
   3.290  0.4241E+01  0.5432E+02
   3.295  0.4253E+01  0.5434E+02
   3.300  0.4265E+01  0.5436E+02
   3.305  0.4276E+01  0.5439E+02
   3.310  0.4287E+01  0.5441E+02
   3.315  0.4297E+01  0.5443E+02
   3.320  0.4307E+01  0.5445E+02
   3.325  0.4316E+01  0.5447E+02
   3.330  0.4324E+01  0.5449E+02
   3.335  0.4331E+01  0.5451E+02
   3.340  0.4338E+01  0.5454E+02
   3.345  0.4345E+01  0.5456E+02
   3.350  0.4350E+01  0.5458E+02
   3.355  0.4355E+01  0.5460E+02
   3.360  0.4359E+01  0.5462E+02
   3.365  0.4363E+01  0.5465E+02
   3.370  0.4365E+01  0.5467E+02
   3.375  0.4368E+01  0.5469E+02
   3.380  0.4369E+01  0.5471E+02
   3.385  0.4370E+01  0.5473E+02
   3.390  0.4370E+01  0.5475E+02
   3.395  0.4370E+01  0.5478E+02
   3.400  0.4370E+01  0.5480E+02
   3.405  0.4369E+01  0.5482E+02
   3.410  0.4367E+01  0.5484E+02
   3.415  0.4365E+01  0.5486E+02
   3.420  0.4363E+01  0.5489E+02
   3.425  0.4361E+01  0.5491E+02
   3.430  0.4358E+01  0.5493E+02
   3.435  0.4356E+01  0.5495E+02
   3.440  0.4353E+01  0.5497E+02
   3.445  0.4350E+01  0.5499E+02
   3.450  0.4347E+01  0.5502E+02
   3.455  0.4345E+01  0.5504E+02
   3.460  0.4342E+01  0.5506E+02
   3.465  0.4340E+01  0.5508E+02
   3.470  0.4338E+01  0.5510E+02
   3.475  0.4336E+01  0.5512E+02
   3.480  0.4335E+01  0.5515E+02
   3.485  0.4333E+01  0.5517E+02
   3.490  0.4333E+01  0.5519E+02
   3.495  0.4332E+01  0.5521E+02
   3.500  0.4332E+01  0.5523E+02
   3.505  0.4333E+01  0.5525E+02
   3.510  0.4334E+01  0.5528E+02
   3.515  0.4335E+01  0.5530E+02
   3.520  0.4337E+01  0.5532E+02
   3.525  0.4340E+01  0.5534E+02
   3.530  0.4342E+01  0.5536E+02
   3.535  0.4345E+01  0.5538E+02
   3.540  0.4349E+01  0.5541E+02
   3.545  0.4353E+01  0.5543E+02
   3.550  0.4357E+01  0.5545E+02
   3.555  0.4361E+01  0.5547E+02
   3.560  0.4366E+01  0.5549E+02
   3.565  0.4371E+01  0.5552E+02
   3.570  0.4376E+01  0.5554E+02
   3.575  0.4381E+01  0.5556E+02
   3.580  0.4386E+01  0.5558E+02
   3.585  0.4391E+01  0.5560E+02
   3.590  0.4396E+01  0.5563E+02
   3.595  0.4400E+01  0.5565E+02
   3.600  0.4405E+01  0.5567E+02
   3.605  0.4409E+01  0.5569E+02
   3.610  0.4413E+01  0.5571E+02
   3.615  0.4417E+01  0.5574E+02
   3.620  0.4421E+01  0.5576E+02
   3.625  0.4423E+01  0.5578E+02
   3.630  0.4426E+01  0.5580E+02
   3.635  0.4428E+01  0.5582E+02
   3.640  0.4429E+01  0.5585E+02
   3.645  0.4430E+01  0.5587E+02
   3.650  0.4430E+01  0.5589E+02
   3.655  0.4429E+01  0.5591E+02
   3.660  0.4428E+01  0.5593E+02
   3.665  0.4426E+01  0.5596E+02
   3.670  0.4423E+01  0.5598E+02
   3.675  0.4420E+01  0.5600E+02
   3.680  0.4416E+01  0.5602E+02
   3.685  0.4410E+01  0.5605E+02
   3.690  0.4404E+01  0.5607E+02
   3.695  0.4397E+01  0.5609E+02
   3.700  0.4389E+01  0.5611E+02
   3.705  0.4381E+01  0.5613E+02
   3.710  0.4371E+01  0.5615E+02
   3.715  0.4360E+01  0.5618E+02
   3.720  0.4348E+01  0.5620E+02
   3.725  0.4336E+01  0.5622E+02
   3.730  0.4322E+01  0.5624E+02
   3.735  0.4307E+01  0.5626E+02
   3.740  0.4291E+01  0.5628E+02
   3.745  0.4274E+01  0.5631E+02
   3.750  0.4256E+01  0.5633E+02
   3.755  0.4236E+01  0.5635E+02
   3.760  0.4216E+01  0.5637E+02
   3.765  0.4194E+01  0.5639E+02
   3.770  0.4171E+01  0.5641E+02
   3.775  0.4147E+01  0.5643E+02
   3.780  0.4122E+01  0.5645E+02
   3.785  0.4095E+01  0.5647E+02
   3.790  0.4067E+01  0.5649E+02
   3.795  0.4038E+01  0.5651E+02
   3.800  0.4008E+01  0.5653E+02
   3.805  0.3977E+01  0.5655E+02
   3.810  0.3944E+01  0.5657E+02
   3.815  0.3911E+01  0.5659E+02
   3.820  0.3876E+01  0.5661E+02
   3.825  0.3840E+01  0.5663E+02
   3.830  0.3803E+01  0.5665E+02
   3.835  0.3765E+01  0.5667E+02
   3.840  0.3726E+01  0.5669E+02
   3.845  0.3686E+01  0.5671E+02
   3.850  0.3646E+01  0.5672E+02
   3.855  0.3604E+01  0.5674E+02
   3.860  0.3562E+01  0.5676E+02
   3.865  0.3520E+01  0.5678E+02
   3.870  0.3477E+01  0.5680E+02
   3.875  0.3434E+01  0.5681E+02
   3.880  0.3390E+01  0.5683E+02
   3.885  0.3347E+01  0.5685E+02
   3.890  0.3303E+01  0.5686E+02
   3.895  0.3259E+01  0.5688E+02
   3.900  0.3215E+01  0.5690E+02
   3.905  0.3172E+01  0.5691E+02
   3.910  0.3129E+01  0.5693E+02
   3.915  0.3087E+01  0.5694E+02
   3.920  0.3045E+01  0.5696E+02
   3.925  0.3004E+01  0.5697E+02
   3.930  0.2963E+01  0.5699E+02
   3.935  0.2923E+01  0.5700E+02
   3.940  0.2885E+01  0.5702E+02
   3.945  0.2847E+01  0.5703E+02
   3.950  0.2810E+01  0.5704E+02
   3.955  0.2775E+01  0.5706E+02
   3.960  0.2740E+01  0.5707E+02
   3.965  0.2707E+01  0.5709E+02
   3.970  0.2675E+01  0.5710E+02
   3.975  0.2645E+01  0.5711E+02
   3.980  0.2615E+01  0.5713E+02
   3.985  0.2587E+01  0.5714E+02
   3.990  0.2561E+01  0.5715E+02
   3.995  0.2535E+01  0.5716E+02
   4.000  0.2512E+01  0.5718E+02
   4.005  0.2489E+01  0.5719E+02
   4.010  0.2468E+01  0.5720E+02
   4.015  0.2448E+01  0.5721E+02
   4.020  0.2430E+01  0.5723E+02
   4.025  0.2412E+01  0.5724E+02
   4.030  0.2396E+01  0.5725E+02
   4.035  0.2382E+01  0.5726E+02
   4.040  0.2368E+01  0.5727E+02
   4.045  0.2356E+01  0.5729E+02
   4.050  0.2345E+01  0.5730E+02
   4.055  0.2334E+01  0.5731E+02
   4.060  0.2325E+01  0.5732E+02
   4.065  0.2317E+01  0.5733E+02
   4.070  0.2311E+01  0.5734E+02
   4.075  0.2305E+01  0.5735E+02
   4.080  0.2299E+01  0.5737E+02
   4.085  0.2295E+01  0.5738E+02
   4.090  0.2292E+01  0.5739E+02
   4.095  0.2290E+01  0.5740E+02
   4.100  0.2288E+01  0.5741E+02
   4.105  0.2288E+01  0.5742E+02
   4.110  0.2288E+01  0.5743E+02
   4.115  0.2289E+01  0.5745E+02
   4.120  0.2290E+01  0.5746E+02
   4.125  0.2293E+01  0.5747E+02
   4.130  0.2296E+01  0.5748E+02
   4.135  0.2300E+01  0.5749E+02
   4.140  0.2304E+01  0.5750E+02
   4.145  0.2310E+01  0.5752E+02
   4.150  0.2316E+01  0.5753E+02
   4.155  0.2322E+01  0.5754E+02
   4.160  0.2330E+01  0.5755E+02
   4.165  0.2338E+01  0.5756E+02
   4.170  0.2346E+01  0.5757E+02
   4.175  0.2355E+01  0.5759E+02
   4.180  0.2365E+01  0.5760E+02
   4.185  0.2376E+01  0.5761E+02
   4.190  0.2387E+01  0.5762E+02
   4.195  0.2398E+01  0.5763E+02
   4.200  0.2410E+01  0.5765E+02
   4.205  0.2423E+01  0.5766E+02
   4.210  0.2436E+01  0.5767E+02
   4.215  0.2449E+01  0.5768E+02
   4.220  0.2463E+01  0.5769E+02
   4.225  0.2477E+01  0.5771E+02
   4.230  0.2492E+01  0.5772E+02
   4.235  0.2507E+01  0.5773E+02
   4.240  0.2523E+01  0.5774E+02
   4.245  0.2539E+01  0.5776E+02
   4.250  0.2555E+01  0.5777E+02
   4.255  0.2571E+01  0.5778E+02
   4.260  0.2588E+01  0.5780E+02
   4.265  0.2605E+01  0.5781E+02
   4.270  0.2622E+01  0.5782E+02
   4.275  0.2639E+01  0.5783E+02
   4.280  0.2656E+01  0.5785E+02
   4.285  0.2674E+01  0.5786E+02
   4.290  0.2692E+01  0.5787E+02
   4.295  0.2710E+01  0.5789E+02
   4.300  0.2728E+01  0.5790E+02
   4.305  0.2746E+01  0.5792E+02
   4.310  0.2764E+01  0.5793E+02
   4.315  0.2782E+01  0.5794E+02
   4.320  0.2800E+01  0.5796E+02
   4.325  0.2819E+01  0.5797E+02
   4.330  0.2837E+01  0.5799E+02
   4.335  0.2855E+01  0.5800E+02
   4.340  0.2874E+01  0.5801E+02
   4.345  0.2892E+01  0.5803E+02
   4.350  0.2910E+01  0.5804E+02
   4.355  0.2928E+01  0.5806E+02
   4.360  0.2946E+01  0.5807E+02
   4.365  0.2964E+01  0.5809E+02
   4.370  0.2982E+01  0.5810E+02
   4.375  0.2999E+01  0.5812E+02
   4.380  0.3016E+01  0.5813E+02
   4.385  0.3033E+01  0.5815E+02
   4.390  0.3050E+01  0.5816E+02
   4.395  0.3066E+01  0.5818E+02
   4.400  0.3081E+01  0.5819E+02
   4.405  0.3097E+01  0.5821E+02
   4.410  0.3111E+01  0.5822E+02
   4.415  0.3125E+01  0.5824E+02
   4.420  0.3138E+01  0.5826E+02
   4.425  0.3151E+01  0.5827E+02
   4.430  0.3163E+01  0.5829E+02
   4.435  0.3173E+01  0.5830E+02
   4.440  0.3184E+01  0.5832E+02
   4.445  0.3193E+01  0.5834E+02
   4.450  0.3201E+01  0.5835E+02
   4.455  0.3208E+01  0.5837E+02
   4.460  0.3214E+01  0.5838E+02
   4.465  0.3219E+01  0.5840E+02
   4.470  0.3223E+01  0.5842E+02
   4.475  0.3226E+01  0.5843E+02
   4.480  0.3228E+01  0.5845E+02
   4.485  0.3229E+01  0.5846E+02
   4.490  0.3229E+01  0.5848E+02
   4.495  0.3227E+01  0.5850E+02
   4.500  0.3225E+01  0.5851E+02
   4.505  0.3222E+01  0.5853E+02
   4.510  0.3218E+01  0.5854E+02
   4.515  0.3213E+01  0.5856E+02
   4.520  0.3207E+01  0.5858E+02
   4.525  0.3200E+01  0.5859E+02
   4.530  0.3193E+01  0.5861E+02
   4.535  0.3185E+01  0.5862E+02
   4.540  0.3176E+01  0.5864E+02
   4.545  0.3167E+01  0.5866E+02
   4.550  0.3158E+01  0.5867E+02
   4.555  0.3148E+01  0.5869E+02
   4.560  0.3139E+01  0.5870E+02
   4.565  0.3129E+01  0.5872E+02
   4.570  0.3119E+01  0.5873E+02
   4.575  0.3109E+01  0.5875E+02
   4.580  0.3100E+01  0.5877E+02
   4.585  0.3091E+01  0.5878E+02
   4.590  0.3082E+01  0.5880E+02
   4.595  0.3074E+01  0.5881E+02
   4.600  0.3066E+01  0.5883E+02
   4.605  0.3059E+01  0.5884E+02
   4.610  0.3053E+01  0.5886E+02
   4.615  0.3047E+01  0.5887E+02
   4.620  0.3043E+01  0.5889E+02
   4.625  0.3039E+01  0.5890E+02
   4.630  0.3036E+01  0.5892E+02
   4.635  0.3034E+01  0.5893E+02
   4.640  0.3034E+01  0.5895E+02
   4.645  0.3034E+01  0.5896E+02
   4.650  0.3035E+01  0.5898E+02
   4.655  0.3037E+01  0.5899E+02
   4.660  0.3041E+01  0.5901E+02
   4.665  0.3045E+01  0.5902E+02
   4.670  0.3051E+01  0.5904E+02
   4.675  0.3057E+01  0.5906E+02
   4.680  0.3064E+01  0.5907E+02
   4.685  0.3072E+01  0.5909E+02
   4.690  0.3081E+01  0.5910E+02
   4.695  0.3091E+01  0.5912E+02
   4.700  0.3102E+01  0.5913E+02
   4.705  0.3113E+01  0.5915E+02
   4.710  0.3124E+01  0.5916E+02
   4.715  0.3136E+01  0.5918E+02
   4.720  0.3148E+01  0.5920E+02
   4.725  0.3161E+01  0.5921E+02
   4.730  0.3174E+01  0.5923E+02
   4.735  0.3186E+01  0.5924E+02
   4.740  0.3199E+01  0.5926E+02
   4.745  0.3212E+01  0.5927E+02
   4.750  0.3224E+01  0.5929E+02
   4.755  0.3236E+01  0.5931E+02
   4.760  0.3247E+01  0.5932E+02
   4.765  0.3258E+01  0.5934E+02
   4.770  0.3268E+01  0.5936E+02
   4.775  0.3278E+01  0.5937E+02
   4.780  0.3286E+01  0.5939E+02
   4.785  0.3294E+01  0.5941E+02
   4.790  0.3301E+01  0.5942E+02
   4.795  0.3306E+01  0.5944E+02
   4.800  0.3311E+01  0.5945E+02
   4.805  0.3314E+01  0.5947E+02
   4.810  0.3316E+01  0.5949E+02
   4.815  0.3317E+01  0.5950E+02
   4.820  0.3317E+01  0.5952E+02
   4.825  0.3315E+01  0.5954E+02
   4.830  0.3313E+01  0.5955E+02
   4.835  0.3309E+01  0.5957E+02
   4.840  0.3304E+01  0.5959E+02
   4.845  0.3297E+01  0.5960E+02
   4.850  0.3290E+01  0.5962E+02
   4.855  0.3282E+01  0.5964E+02
   4.860  0.3272E+01  0.5965E+02
   4.865  0.3262E+01  0.5967E+02
   4.870  0.3251E+01  0.5969E+02
   4.875  0.3239E+01  0.5970E+02
   4.880  0.3227E+01  0.5972E+02
   4.885  0.3214E+01  0.5973E+02
   4.890  0.3201E+01  0.5975E+02
   4.895  0.3187E+01  0.5977E+02
   4.900  0.3173E+01  0.5978E+02
   4.905  0.3159E+01  0.5980E+02
   4.910  0.3146E+01  0.5981E+02
   4.915  0.3132E+01  0.5983E+02
   4.920  0.3119E+01  0.5984E+02
   4.925  0.3106E+01  0.5986E+02
   4.930  0.3094E+01  0.5988E+02
   4.935  0.3082E+01  0.5989E+02
   4.940  0.3071E+01  0.5991E+02
   4.945  0.3062E+01  0.5992E+02
   4.950  0.3052E+01  0.5994E+02
   4.955  0.3045E+01  0.5995E+02
   4.960  0.3038E+01  0.5997E+02
   4.965  0.3032E+01  0.5998E+02
   4.970  0.3027E+01  0.6000E+02
   4.975  0.3024E+01  0.6001E+02
   4.980  0.3022E+01  0.6003E+02
   4.985  0.3021E+01  0.6004E+02
   4.990  0.3022E+01  0.6006E+02
   4.995  0.3024E+01  0.6007E+02
   5.000  0.3027E+01  0.6009E+02
   5.005  0.3031E+01  0.6010E+02
   5.010  0.3036E+01  0.6012E+02
   5.015  0.3043E+01  0.6013E+02
   5.020  0.3051E+01  0.6015E+02
   5.025  0.3060E+01  0.6016E+02
   5.030  0.3069E+01  0.6018E+02
   5.035  0.3080E+01  0.6020E+02
   5.040  0.3091E+01  0.6021E+02
   5.045  0.3103E+01  0.6023E+02
   5.050  0.3115E+01  0.6024E+02
   5.055  0.3128E+01  0.6026E+02
   5.060  0.3142E+01  0.6027E+02
   5.065  0.3155E+01  0.6029E+02
   5.070  0.3169E+01  0.6030E+02
   5.075  0.3183E+01  0.6032E+02
   5.080  0.3197E+01  0.6034E+02
   5.085  0.3211E+01  0.6035E+02
   5.090  0.3224E+01  0.6037E+02
   5.095  0.3237E+01  0.6039E+02
   5.100  0.3250E+01  0.6040E+02
   5.105  0.3263E+01  0.6042E+02
   5.110  0.3275E+01  0.6043E+02
   5.115  0.3286E+01  0.6045E+02
   5.120  0.3297E+01  0.6047E+02
   5.125  0.3307E+01  0.6048E+02
   5.130  0.3316E+01  0.6050E+02
   5.135  0.3325E+01  0.6052E+02
   5.140  0.3333E+01  0.6053E+02
   5.145  0.3340E+01  0.6055E+02
   5.150  0.3346E+01  0.6057E+02
   5.155  0.3352E+01  0.6058E+02
   5.160  0.3356E+01  0.6060E+02
   5.165  0.3361E+01  0.6062E+02
   5.170  0.3364E+01  0.6063E+02
   5.175  0.3367E+01  0.6065E+02
   5.180  0.3369E+01  0.6067E+02
   5.185  0.3371E+01  0.6068E+02
   5.190  0.3372E+01  0.6070E+02
   5.195  0.3373E+01  0.6072E+02
   5.200  0.3373E+01  0.6073E+02
   5.205  0.3374E+01  0.6075E+02
   5.210  0.3374E+01  0.6077E+02
   5.215  0.3374E+01  0.6079E+02
   5.220  0.3374E+01  0.6080E+02
   5.225  0.3375E+01  0.6082E+02
   5.230  0.3375E+01  0.6084E+02
   5.235  0.3376E+01  0.6085E+02
   5.240  0.3377E+01  0.6087E+02
   5.245  0.3379E+01  0.6089E+02
   5.250  0.3382E+01  0.6090E+02
   5.255  0.3385E+01  0.6092E+02
   5.260  0.3389E+01  0.6094E+02
   5.265  0.3395E+01  0.6095E+02
   5.270  0.3401E+01  0.6097E+02
   5.275  0.3408E+01  0.6099E+02
   5.280  0.3416E+01  0.6101E+02
   5.285  0.3426E+01  0.6102E+02
   5.290  0.3437E+01  0.6104E+02
   5.295  0.3449E+01  0.6106E+02
   5.300  0.3462E+01  0.6107E+02
   5.305  0.3477E+01  0.6109E+02
   5.310  0.3492E+01  0.6111E+02
   5.315  0.3510E+01  0.6113E+02
   5.320  0.3528E+01  0.6114E+02
   5.325  0.3548E+01  0.6116E+02
   5.330  0.3569E+01  0.6118E+02
   5.335  0.3591E+01  0.6120E+02
   5.340  0.3614E+01  0.6122E+02
   5.345  0.3637E+01  0.6123E+02
   5.350  0.3662E+01  0.6125E+02
   5.355  0.3688E+01  0.6127E+02
   5.360  0.3714E+01  0.6129E+02
   5.365  0.3741E+01  0.6131E+02
   5.370  0.3768E+01  0.6133E+02
   5.375  0.3795E+01  0.6135E+02
   5.380  0.3822E+01  0.6137E+02
   5.385  0.3850E+01  0.6138E+02
   5.390  0.3877E+01  0.6140E+02
   5.395  0.3905E+01  0.6142E+02
   5.400  0.3932E+01  0.6144E+02
   5.405  0.3958E+01  0.6146E+02
   5.410  0.3984E+01  0.6148E+02
   5.415  0.4010E+01  0.6150E+02
   5.420  0.4034E+01  0.6152E+02
   5.425  0.4058E+01  0.6154E+02
   5.430  0.4081E+01  0.6156E+02
   5.435  0.4103E+01  0.6158E+02
   5.440  0.4125E+01  0.6160E+02
   5.445  0.4145E+01  0.6163E+02
   5.450  0.4164E+01  0.6165E+02
   5.455  0.4182E+01  0.6167E+02
   5.460  0.4199E+01  0.6169E+02
   5.465  0.4215E+01  0.6171E+02
   5.470  0.4230E+01  0.6173E+02
   5.475  0.4245E+01  0.6175E+02
   5.480  0.4258E+01  0.6177E+02
   5.485  0.4270E+01  0.6179E+02
   5.490  0.4282E+01  0.6182E+02
   5.495  0.4292E+01  0.6184E+02
   5.500  0.4302E+01  0.6186E+02
   5.505  0.4311E+01  0.6188E+02
   5.510  0.4320E+01  0.6190E+02
   5.515  0.4328E+01  0.6192E+02
   5.520  0.4336E+01  0.6195E+02
   5.525  0.4343E+01  0.6197E+02
   5.530  0.4350E+01  0.6199E+02
   5.535  0.4357E+01  0.6201E+02
   5.540  0.4363E+01  0.6203E+02
   5.545  0.4370E+01  0.6205E+02
   5.550  0.4376E+01  0.6208E+02
   5.555  0.4382E+01  0.6210E+02
   5.560  0.4389E+01  0.6212E+02
   5.565  0.4396E+01  0.6214E+02
   5.570  0.4402E+01  0.6216E+02
   5.575  0.4410E+01  0.6219E+02
   5.580  0.4417E+01  0.6221E+02
   5.585  0.4425E+01  0.6223E+02
   5.590  0.4433E+01  0.6225E+02
   5.595  0.4442E+01  0.6227E+02
   5.600  0.4451E+01  0.6230E+02
   5.605  0.4460E+01  0.6232E+02
   5.610  0.4470E+01  0.6234E+02
   5.615  0.4481E+01  0.6236E+02
   5.620  0.4492E+01  0.6239E+02
   5.625  0.4504E+01  0.6241E+02
   5.630  0.4517E+01  0.6243E+02
   5.635  0.4530E+01  0.6245E+02
   5.640  0.4543E+01  0.6248E+02
   5.645  0.4558E+01  0.6250E+02
   5.650  0.4573E+01  0.6252E+02
   5.655  0.4588E+01  0.6255E+02
   5.660  0.4605E+01  0.6257E+02
   5.665  0.4622E+01  0.6259E+02
   5.670  0.4639E+01  0.6261E+02
   5.675  0.4657E+01  0.6264E+02
   5.680  0.4676E+01  0.6266E+02
   5.685  0.4695E+01  0.6268E+02
   5.690  0.4714E+01  0.6271E+02
   5.695  0.4735E+01  0.6273E+02
   5.700  0.4755E+01  0.6276E+02
   5.705  0.4776E+01  0.6278E+02
   5.710  0.4797E+01  0.6280E+02
   5.715  0.4819E+01  0.6283E+02
   5.720  0.4841E+01  0.6285E+02
   5.725  0.4863E+01  0.6288E+02
   5.730  0.4885E+01  0.6290E+02
   5.735  0.4907E+01  0.6293E+02
   5.740  0.4929E+01  0.6295E+02
   5.745  0.4952E+01  0.6297E+02
   5.750  0.4974E+01  0.6300E+02
   5.755  0.4996E+01  0.6302E+02
   5.760  0.5018E+01  0.6305E+02
   5.765  0.5040E+01  0.6307E+02
   5.770  0.5062E+01  0.6310E+02
   5.775  0.5083E+01  0.6313E+02
   5.780  0.5104E+01  0.6315E+02
   5.785  0.5125E+01  0.6318E+02
   5.790  0.5145E+01  0.6320E+02
   5.795  0.5166E+01  0.6323E+02
   5.800  0.5186E+01  0.6325E+02
   5.805  0.5205E+01  0.6328E+02
   5.810  0.5224E+01  0.6331E+02
   5.815  0.5243E+01  0.6333E+02
   5.820  0.5262E+01  0.6336E+02
   5.825  0.5280E+01  0.6339E+02
   5.830  0.5298E+01  0.6341E+02
   5.835  0.5315E+01  0.6344E+02
   5.840  0.5333E+01  0.6347E+02
   5.845  0.5350E+01  0.6349E+02
   5.850  0.5367E+01  0.6352E+02
   5.855  0.5384E+01  0.6355E+02
   5.860  0.5400E+01  0.6357E+02
   5.865  0.5417E+01  0.6360E+02
   5.870  0.5433E+01  0.6363E+02
   5.875  0.5449E+01  0.6365E+02
   5.880  0.5466E+01  0.6368E+02
   5.885  0.5482E+01  0.6371E+02
   5.890  0.5498E+01  0.6374E+02
   5.895  0.5515E+01  0.6376E+02
   5.900  0.5531E+01  0.6379E+02
   5.905  0.5547E+01  0.6382E+02
   5.910  0.5564E+01  0.6385E+02
   5.915  0.5581E+01  0.6388E+02
   5.920  0.5597E+01  0.6390E+02
   5.925  0.5614E+01  0.6393E+02
   5.930  0.5631E+01  0.6396E+02
   5.935  0.5648E+01  0.6399E+02
   5.940  0.5665E+01  0.6402E+02
   5.945  0.5681E+01  0.6404E+02
   5.950  0.5698E+01  0.6407E+02
   5.955  0.5715E+01  0.6410E+02
   5.960  0.5732E+01  0.6413E+02
   5.965  0.5749E+01  0.6416E+02
   5.970  0.5765E+01  0.6419E+02
   5.975  0.5782E+01  0.6422E+02
   5.980  0.5798E+01  0.6425E+02
   5.985  0.5814E+01  0.6427E+02
   5.990  0.5829E+01  0.6430E+02
   5.995  0.5845E+01  0.6433E+02
   6.000  0.5860E+01  0.6436E+02
   6.005  0.5874E+01  0.6439E+02
   6.010  0.5888E+01  0.6442E+02
   6.015  0.5902E+01  0.6445E+02
   6.020  0.5915E+01  0.6448E+02
   6.025  0.5927E+01  0.6451E+02
   6.030  0.5939E+01  0.6454E+02
   6.035  0.5950E+01  0.6457E+02
   6.040  0.5961E+01  0.6460E+02
   6.045  0.5970E+01  0.6463E+02
   6.050  0.5979E+01  0.6466E+02
   6.055  0.5987E+01  0.6469E+02
   6.060  0.5994E+01  0.6472E+02
   6.065  0.6001E+01  0.6475E+02
   6.070  0.6006E+01  0.6478E+02
   6.075  0.6010E+01  0.6481E+02
   6.080  0.6014E+01  0.6484E+02
   6.085  0.6016E+01  0.6487E+02
   6.090  0.6017E+01  0.6490E+02
   6.095  0.6017E+01  0.6493E+02
   6.100  0.6017E+01  0.6496E+02
   6.105  0.6015E+01  0.6499E+02
   6.110  0.6012E+01  0.6502E+02
   6.115  0.6008E+01  0.6505E+02
   6.120  0.6003E+01  0.6508E+02
   6.125  0.5997E+01  0.6511E+02
   6.130  0.5990E+01  0.6514E+02
   6.135  0.5982E+01  0.6517E+02
   6.140  0.5973E+01  0.6520E+02
   6.145  0.5963E+01  0.6523E+02
   6.150  0.5952E+01  0.6526E+02
   6.155  0.5940E+01  0.6529E+02
   6.160  0.5927E+01  0.6532E+02
   6.165  0.5914E+01  0.6535E+02
   6.170  0.5900E+01  0.6538E+02
   6.175  0.5885E+01  0.6541E+02
   6.180  0.5870E+01  0.6544E+02
   6.185  0.5854E+01  0.6546E+02
   6.190  0.5837E+01  0.6549E+02
   6.195  0.5820E+01  0.6552E+02
   6.200  0.5803E+01  0.6555E+02
   6.205  0.5785E+01  0.6558E+02
   6.210  0.5767E+01  0.6561E+02
   6.215  0.5749E+01  0.6564E+02
   6.220  0.5730E+01  0.6567E+02
   6.225  0.5711E+01  0.6570E+02
   6.230  0.5692E+01  0.6572E+02
   6.235  0.5673E+01  0.6575E+02
   6.240  0.5654E+01  0.6578E+02
   6.245  0.5634E+01  0.6581E+02
   6.250  0.5615E+01  0.6584E+02
   6.255  0.5595E+01  0.6587E+02
   6.260  0.5576E+01  0.6589E+02
   6.265  0.5556E+01  0.6592E+02
   6.270  0.5537E+01  0.6595E+02
   6.275  0.5517E+01  0.6598E+02
   6.280  0.5498E+01  0.6600E+02
   6.285  0.5479E+01  0.6603E+02
   6.290  0.5459E+01  0.6606E+02
   6.295  0.5440E+01  0.6609E+02
   6.300  0.5421E+01  0.6611E+02
   6.305  0.5403E+01  0.6614E+02
   6.310  0.5384E+01  0.6617E+02
   6.315  0.5366E+01  0.6619E+02
   6.320  0.5348E+01  0.6622E+02
   6.325  0.5330E+01  0.6625E+02
   6.330  0.5313E+01  0.6627E+02
   6.335  0.5297E+01  0.6630E+02
   6.340  0.5281E+01  0.6633E+02
   6.345  0.5265E+01  0.6635E+02
   6.350  0.5250E+01  0.6638E+02
   6.355  0.5236E+01  0.6641E+02
   6.360  0.5223E+01  0.6643E+02
   6.365  0.5211E+01  0.6646E+02
   6.370  0.5199E+01  0.6648E+02
   6.375  0.5189E+01  0.6651E+02
   6.380  0.5180E+01  0.6654E+02
   6.385  0.5172E+01  0.6656E+02
   6.390  0.5165E+01  0.6659E+02
   6.395  0.5159E+01  0.6661E+02
   6.400  0.5155E+01  0.6664E+02
   6.405  0.5152E+01  0.6666E+02
   6.410  0.5151E+01  0.6669E+02
   6.415  0.5151E+01  0.6672E+02
   6.420  0.5152E+01  0.6674E+02
   6.425  0.5155E+01  0.6677E+02
   6.430  0.5159E+01  0.6679E+02
   6.435  0.5165E+01  0.6682E+02
   6.440  0.5173E+01  0.6684E+02
   6.445  0.5182E+01  0.6687E+02
   6.450  0.5192E+01  0.6690E+02
   6.455  0.5203E+01  0.6692E+02
   6.460  0.5216E+01  0.6695E+02
   6.465  0.5230E+01  0.6697E+02
   6.470  0.5245E+01  0.6700E+02
   6.475  0.5262E+01  0.6703E+02
   6.480  0.5279E+01  0.6705E+02
   6.485  0.5297E+01  0.6708E+02
   6.490  0.5316E+01  0.6711E+02
   6.495  0.5336E+01  0.6713E+02
   6.500  0.5356E+01  0.6716E+02
   6.505  0.5377E+01  0.6719E+02
   6.510  0.5398E+01  0.6721E+02
   6.515  0.5420E+01  0.6724E+02
   6.520  0.5441E+01  0.6727E+02
   6.525  0.5463E+01  0.6730E+02
   6.530  0.5485E+01  0.6732E+02
   6.535  0.5507E+01  0.6735E+02
   6.540  0.5529E+01  0.6738E+02
   6.545  0.5551E+01  0.6741E+02
   6.550  0.5573E+01  0.6743E+02
   6.555  0.5594E+01  0.6746E+02
   6.560  0.5615E+01  0.6749E+02
   6.565  0.5636E+01  0.6752E+02
   6.570  0.5656E+01  0.6755E+02
   6.575  0.5676E+01  0.6757E+02
   6.580  0.5696E+01  0.6760E+02
   6.585  0.5715E+01  0.6763E+02
   6.590  0.5733E+01  0.6766E+02
   6.595  0.5751E+01  0.6769E+02
   6.600  0.5769E+01  0.6772E+02
   6.605  0.5786E+01  0.6775E+02
   6.610  0.5803E+01  0.6778E+02
   6.615  0.5819E+01  0.6781E+02
   6.620  0.5835E+01  0.6783E+02
   6.625  0.5851E+01  0.6786E+02
   6.630  0.5866E+01  0.6789E+02
   6.635  0.5882E+01  0.6792E+02
   6.640  0.5896E+01  0.6795E+02
   6.645  0.5911E+01  0.6798E+02
   6.650  0.5925E+01  0.6801E+02
   6.655  0.5939E+01  0.6804E+02
   6.660  0.5953E+01  0.6807E+02
   6.665  0.5966E+01  0.6810E+02
   6.670  0.5980E+01  0.6813E+02
   6.675  0.5993E+01  0.6816E+02
   6.680  0.6006E+01  0.6819E+02
   6.685  0.6019E+01  0.6822E+02
   6.690  0.6032E+01  0.6825E+02
   6.695  0.6044E+01  0.6828E+02
   6.700  0.6056E+01  0.6831E+02
   6.705  0.6068E+01  0.6834E+02
   6.710  0.6079E+01  0.6837E+02
   6.715  0.6090E+01  0.6840E+02
   6.720  0.6101E+01  0.6843E+02
   6.725  0.6111E+01  0.6846E+02
   6.730  0.6120E+01  0.6849E+02
   6.735  0.6129E+01  0.6852E+02
   6.740  0.6137E+01  0.6856E+02
   6.745  0.6145E+01  0.6859E+02
   6.750  0.6151E+01  0.6862E+02
   6.755  0.6157E+01  0.6865E+02
   6.760  0.6162E+01  0.6868E+02
   6.765  0.6166E+01  0.6871E+02
   6.770  0.6169E+01  0.6874E+02
   6.775  0.6170E+01  0.6877E+02
   6.780  0.6171E+01  0.6880E+02
   6.785  0.6170E+01  0.6883E+02
   6.790  0.6168E+01  0.6886E+02
   6.795  0.6164E+01  0.6889E+02
   6.800  0.6159E+01  0.6892E+02
   6.805  0.6153E+01  0.6896E+02
   6.810  0.6145E+01  0.6899E+02
   6.815  0.6136E+01  0.6902E+02
   6.820  0.6126E+01  0.6905E+02
   6.825  0.6114E+01  0.6908E+02
   6.830  0.6100E+01  0.6911E+02
   6.835  0.6086E+01  0.6914E+02
   6.840  0.6069E+01  0.6917E+02
   6.845  0.6052E+01  0.6920E+02
   6.850  0.6033E+01  0.6923E+02
   6.855  0.6013E+01  0.6926E+02
   6.860  0.5992E+01  0.6929E+02
   6.865  0.5969E+01  0.6932E+02
   6.870  0.5946E+01  0.6935E+02
   6.875  0.5922E+01  0.6938E+02
   6.880  0.5897E+01  0.6941E+02
   6.885  0.5871E+01  0.6944E+02
   6.890  0.5844E+01  0.6947E+02
   6.895  0.5817E+01  0.6950E+02
   6.900  0.5790E+01  0.6953E+02
   6.905  0.5762E+01  0.6955E+02
   6.910  0.5734E+01  0.6958E+02
   6.915  0.5706E+01  0.6961E+02
   6.920  0.5678E+01  0.6964E+02
   6.925  0.5650E+01  0.6967E+02
   6.930  0.5623E+01  0.6970E+02
   6.935  0.5596E+01  0.6972E+02
   6.940  0.5570E+01  0.6975E+02
   6.945  0.5544E+01  0.6978E+02
   6.950  0.5520E+01  0.6981E+02
   6.955  0.5496E+01  0.6983E+02
   6.960  0.5474E+01  0.6986E+02
   6.965  0.5453E+01  0.6989E+02
   6.970  0.5433E+01  0.6992E+02
   6.975  0.5415E+01  0.6994E+02
   6.980  0.5399E+01  0.6997E+02
   6.985  0.5385E+01  0.7000E+02
   6.990  0.5372E+01  0.7002E+02
   6.995  0.5362E+01  0.7005E+02
   7.000  0.5354E+01  0.7008E+02
   7.005  0.5348E+01  0.7010E+02
   7.010  0.5345E+01  0.7013E+02
   7.015  0.5344E+01  0.7016E+02
   7.020  0.5346E+01  0.7018E+02
   7.025  0.5350E+01  0.7021E+02
   7.030  0.5357E+01  0.7024E+02
   7.035  0.5367E+01  0.7027E+02
   7.040  0.5380E+01  0.7029E+02
   7.045  0.5396E+01  0.7032E+02
   7.050  0.5415E+01  0.7035E+02
   7.055  0.5437E+01  0.7037E+02
   7.060  0.5462E+01  0.7040E+02
   7.065  0.5490E+01  0.7043E+02
   7.070  0.5521E+01  0.7046E+02
   7.075  0.5555E+01  0.7048E+02
   7.080  0.5592E+01  0.7051E+02
   7.085  0.5632E+01  0.7054E+02
   7.090  0.5674E+01  0.7057E+02
   7.095  0.5719E+01  0.7060E+02
   7.100  0.5767E+01  0.7063E+02
   7.105  0.5817E+01  0.7065E+02
   7.110  0.5870E+01  0.7068E+02
   7.115  0.5925E+01  0.7071E+02
   7.120  0.5982E+01  0.7074E+02
   7.125  0.6040E+01  0.7077E+02
   7.130  0.6100E+01  0.7080E+02
   7.135  0.6162E+01  0.7083E+02
   7.140  0.6225E+01  0.7087E+02
   7.145  0.6289E+01  0.7090E+02
   7.150  0.6354E+01  0.7093E+02
   7.155  0.6419E+01  0.7096E+02
   7.160  0.6484E+01  0.7099E+02
   7.165  0.6550E+01  0.7103E+02
   7.170  0.6615E+01  0.7106E+02
   7.175  0.6680E+01  0.7109E+02
   7.180  0.6745E+01  0.7113E+02
   7.185  0.6808E+01  0.7116E+02
   7.190  0.6870E+01  0.7120E+02
   7.195  0.6931E+01  0.7123E+02
   7.200  0.6990E+01  0.7126E+02
   7.205  0.7047E+01  0.7130E+02
   7.210  0.7102E+01  0.7134E+02
   7.215  0.7155E+01  0.7137E+02
   7.220  0.7205E+01  0.7141E+02
   7.225  0.7253E+01  0.7144E+02
   7.230  0.7298E+01  0.7148E+02
   7.235  0.7341E+01  0.7152E+02
   7.240  0.7380E+01  0.7155E+02
   7.245  0.7416E+01  0.7159E+02
   7.250  0.7449E+01  0.7163E+02
   7.255  0.7479E+01  0.7167E+02
   7.260  0.7506E+01  0.7170E+02
   7.265  0.7529E+01  0.7174E+02
   7.270  0.7549E+01  0.7178E+02
   7.275  0.7566E+01  0.7182E+02
   7.280  0.7580E+01  0.7185E+02
   7.285  0.7590E+01  0.7189E+02
   7.290  0.7598E+01  0.7193E+02
   7.295  0.7602E+01  0.7197E+02
   7.300  0.7603E+01  0.7201E+02
   7.305  0.7602E+01  0.7204E+02
   7.310  0.7598E+01  0.7208E+02
   7.315  0.7592E+01  0.7212E+02
   7.320  0.7583E+01  0.7216E+02
   7.325  0.7572E+01  0.7220E+02
   7.330  0.7558E+01  0.7223E+02
   7.335  0.7543E+01  0.7227E+02
   7.340  0.7526E+01  0.7231E+02
   7.345  0.7508E+01  0.7235E+02
   7.350  0.7488E+01  0.7238E+02
   7.355  0.7466E+01  0.7242E+02
   7.360  0.7444E+01  0.7246E+02
   7.365  0.7421E+01  0.7250E+02
   7.370  0.7397E+01  0.7253E+02
   7.375  0.7372E+01  0.7257E+02
   7.380  0.7347E+01  0.7261E+02
   7.385  0.7321E+01  0.7264E+02
   7.390  0.7295E+01  0.7268E+02
   7.395  0.7269E+01  0.7272E+02
   7.400  0.7243E+01  0.7275E+02
   7.405  0.7217E+01  0.7279E+02
   7.410  0.7192E+01  0.7282E+02
   7.415  0.7166E+01  0.7286E+02
   7.420  0.7141E+01  0.7290E+02
   7.425  0.7116E+01  0.7293E+02
   7.430  0.7091E+01  0.7297E+02
   7.435  0.7067E+01  0.7300E+02
   7.440  0.7043E+01  0.7304E+02
   7.445  0.7020E+01  0.7307E+02
   7.450  0.6997E+01  0.7311E+02
   7.455  0.6974E+01  0.7314E+02
   7.460  0.6952E+01  0.7318E+02
   7.465  0.6930E+01  0.7321E+02
   7.470  0.6908E+01  0.7325E+02
   7.475  0.6886E+01  0.7328E+02
   7.480  0.6864E+01  0.7331E+02
   7.485  0.6842E+01  0.7335E+02
   7.490  0.6820E+01  0.7338E+02
   7.495  0.6797E+01  0.7342E+02
   7.500  0.6775E+01  0.7345E+02
   7.505  0.6751E+01  0.7348E+02
   7.510  0.6727E+01  0.7352E+02
   7.515  0.6703E+01  0.7355E+02
   7.520  0.6678E+01  0.7358E+02
   7.525  0.6651E+01  0.7362E+02
   7.530  0.6624E+01  0.7365E+02
   7.535  0.6595E+01  0.7368E+02
   7.540  0.6566E+01  0.7372E+02
   7.545  0.6534E+01  0.7375E+02
   7.550  0.6502E+01  0.7378E+02
   7.555  0.6468E+01  0.7381E+02
   7.560  0.6432E+01  0.7385E+02
   7.565  0.6395E+01  0.7388E+02
   7.570  0.6356E+01  0.7391E+02
   7.575  0.6315E+01  0.7394E+02
   7.580  0.6273E+01  0.7397E+02
   7.585  0.6229E+01  0.7400E+02
   7.590  0.6183E+01  0.7404E+02
   7.595  0.6135E+01  0.7407E+02
   7.600  0.6086E+01  0.7410E+02
   7.605  0.6034E+01  0.7413E+02
   7.610  0.5981E+01  0.7416E+02
   7.615  0.5927E+01  0.7419E+02
   7.620  0.5871E+01  0.7422E+02
   7.625  0.5813E+01  0.7424E+02
   7.630  0.5754E+01  0.7427E+02
   7.635  0.5694E+01  0.7430E+02
   7.640  0.5633E+01  0.7433E+02
   7.645  0.5571E+01  0.7436E+02
   7.650  0.5507E+01  0.7439E+02
   7.655  0.5443E+01  0.7441E+02
   7.660  0.5379E+01  0.7444E+02
   7.665  0.5314E+01  0.7447E+02
   7.670  0.5249E+01  0.7449E+02
   7.675  0.5183E+01  0.7452E+02
   7.680  0.5118E+01  0.7454E+02
   7.685  0.5053E+01  0.7457E+02
   7.690  0.4988E+01  0.7459E+02
   7.695  0.4924E+01  0.7462E+02
   7.700  0.4861E+01  0.7464E+02
   7.705  0.4799E+01  0.7467E+02
   7.710  0.4738E+01  0.7469E+02
   7.715  0.4678E+01  0.7471E+02
   7.720  0.4619E+01  0.7474E+02
   7.725  0.4563E+01  0.7476E+02
   7.730  0.4508E+01  0.7478E+02
   7.735  0.4455E+01  0.7480E+02
   7.740  0.4404E+01  0.7483E+02
   7.745  0.4356E+01  0.7485E+02
   7.750  0.4310E+01  0.7487E+02
   7.755  0.4267E+01  0.7489E+02
   7.760  0.4227E+01  0.7491E+02
   7.765  0.4190E+01  0.7493E+02
   7.770  0.4156E+01  0.7495E+02
   7.775  0.4125E+01  0.7498E+02
   7.780  0.4098E+01  0.7500E+02
   7.785  0.4074E+01  0.7502E+02
   7.790  0.4054E+01  0.7504E+02
   7.795  0.4038E+01  0.7506E+02
   7.800  0.4026E+01  0.7508E+02
   7.805  0.4017E+01  0.7510E+02
   7.810  0.4013E+01  0.7512E+02
   7.815  0.4013E+01  0.7514E+02
   7.820  0.4017E+01  0.7516E+02
   7.825  0.4026E+01  0.7518E+02
   7.830  0.4039E+01  0.7520E+02
   7.835  0.4056E+01  0.7522E+02
   7.840  0.4077E+01  0.7524E+02
   7.845  0.4103E+01  0.7526E+02
   7.850  0.4133E+01  0.7528E+02
   7.855  0.4168E+01  0.7530E+02
   7.860  0.4206E+01  0.7532E+02
   7.865  0.4249E+01  0.7534E+02
   7.870  0.4297E+01  0.7536E+02
   7.875  0.4348E+01  0.7539E+02
   7.880  0.4403E+01  0.7541E+02
   7.885  0.4462E+01  0.7543E+02
   7.890  0.4524E+01  0.7545E+02
   7.895  0.4590E+01  0.7548E+02
   7.900  0.4659E+01  0.7550E+02
   7.905  0.4732E+01  0.7552E+02
   7.910  0.4807E+01  0.7555E+02
   7.915  0.4885E+01  0.7557E+02
   7.920  0.4966E+01  0.7560E+02
   7.925  0.5049E+01  0.7562E+02
   7.930  0.5133E+01  0.7565E+02
   7.935  0.5220E+01  0.7567E+02
   7.940  0.5308E+01  0.7570E+02
   7.945  0.5397E+01  0.7573E+02
   7.950  0.5488E+01  0.7575E+02
   7.955  0.5579E+01  0.7578E+02
   7.960  0.5671E+01  0.7581E+02
   7.965  0.5762E+01  0.7584E+02
   7.970  0.5854E+01  0.7587E+02
   7.975  0.5946E+01  0.7590E+02
   7.980  0.6037E+01  0.7593E+02
   7.985  0.6128E+01  0.7596E+02
   7.990  0.6217E+01  0.7599E+02
   7.995  0.6305E+01  0.7602E+02
   8.000  0.6392E+01  0.7605E+02
   8.005  0.6478E+01  0.7609E+02
   8.010  0.6561E+01  0.7612E+02
   8.015  0.6643E+01  0.7615E+02
   8.020  0.6722E+01  0.7618E+02
   8.025  0.6800E+01  0.7622E+02
   8.030  0.6875E+01  0.7625E+02
   8.035  0.6947E+01  0.7629E+02
   8.040  0.7017E+01  0.7632E+02
   8.045  0.7085E+01  0.7636E+02
   8.050  0.7149E+01  0.7639E+02
   8.055  0.7211E+01  0.7643E+02
   8.060  0.7270E+01  0.7647E+02
   8.065  0.7326E+01  0.7650E+02
   8.070  0.7378E+01  0.7654E+02
   8.075  0.7428E+01  0.7658E+02
   8.080  0.7475E+01  0.7661E+02
   8.085  0.7519E+01  0.7665E+02
   8.090  0.7560E+01  0.7669E+02
   8.095  0.7598E+01  0.7673E+02
   8.100  0.7633E+01  0.7677E+02
   8.105  0.7665E+01  0.7680E+02
   8.110  0.7695E+01  0.7684E+02
   8.115  0.7721E+01  0.7688E+02
   8.120  0.7745E+01  0.7692E+02
   8.125  0.7767E+01  0.7696E+02
   8.130  0.7785E+01  0.7700E+02
   8.135  0.7802E+01  0.7704E+02
   8.140  0.7816E+01  0.7708E+02
   8.145  0.7827E+01  0.7712E+02
   8.150  0.7837E+01  0.7715E+02
   8.155  0.7845E+01  0.7719E+02
   8.160  0.7850E+01  0.7723E+02
   8.165  0.7854E+01  0.7727E+02
   8.170  0.7856E+01  0.7731E+02
   8.175  0.7857E+01  0.7735E+02
   8.180  0.7856E+01  0.7739E+02
   8.185  0.7854E+01  0.7743E+02
   8.190  0.7851E+01  0.7747E+02
   8.195  0.7847E+01  0.7751E+02
   8.200  0.7842E+01  0.7755E+02
   8.205  0.7836E+01  0.7759E+02
   8.210  0.7830E+01  0.7763E+02
   8.215  0.7823E+01  0.7766E+02
   8.220  0.7816E+01  0.7770E+02
   8.225  0.7808E+01  0.7774E+02
   8.230  0.7801E+01  0.7778E+02
   8.235  0.7793E+01  0.7782E+02
   8.240  0.7786E+01  0.7786E+02
   8.245  0.7779E+01  0.7790E+02
   8.250  0.7772E+01  0.7794E+02
   8.255  0.7766E+01  0.7798E+02
   8.260  0.7760E+01  0.7802E+02
   8.265  0.7755E+01  0.7805E+02
   8.270  0.7751E+01  0.7809E+02
   8.275  0.7748E+01  0.7813E+02
   8.280  0.7746E+01  0.7817E+02
   8.285  0.7744E+01  0.7821E+02
   8.290  0.7744E+01  0.7825E+02
   8.295  0.7746E+01  0.7829E+02
   8.300  0.7748E+01  0.7832E+02
   8.305  0.7752E+01  0.7836E+02
   8.310  0.7757E+01  0.7840E+02
   8.315  0.7764E+01  0.7844E+02
   8.320  0.7773E+01  0.7848E+02
   8.325  0.7783E+01  0.7852E+02
   8.330  0.7795E+01  0.7856E+02
   8.335  0.7808E+01  0.7860E+02
   8.340  0.7823E+01  0.7864E+02
   8.345  0.7840E+01  0.7868E+02
   8.350  0.7859E+01  0.7871E+02
   8.355  0.7880E+01  0.7875E+02
   8.360  0.7903E+01  0.7879E+02
   8.365  0.7927E+01  0.7883E+02
   8.370  0.7953E+01  0.7887E+02
   8.375  0.7981E+01  0.7891E+02
   8.380  0.8011E+01  0.7895E+02
   8.385  0.8043E+01  0.7899E+02
   8.390  0.8077E+01  0.7903E+02
   8.395  0.8112E+01  0.7907E+02
   8.400  0.8149E+01  0.7911E+02
   8.405  0.8188E+01  0.7916E+02
   8.410  0.8229E+01  0.7920E+02
   8.415  0.8271E+01  0.7924E+02
   8.420  0.8315E+01  0.7928E+02
   8.425  0.8360E+01  0.7932E+02
   8.430  0.8406E+01  0.7936E+02
   8.435  0.8454E+01  0.7941E+02
   8.440  0.8503E+01  0.7945E+02
   8.445  0.8554E+01  0.7949E+02
   8.450  0.8605E+01  0.7953E+02
   8.455  0.8657E+01  0.7958E+02
   8.460  0.8711E+01  0.7962E+02
   8.465  0.8765E+01  0.7967E+02
   8.470  0.8819E+01  0.7971E+02
   8.475  0.8875E+01  0.7975E+02
   8.480  0.8930E+01  0.7980E+02
   8.485  0.8986E+01  0.7984E+02
   8.490  0.9042E+01  0.7989E+02
   8.495  0.9098E+01  0.7993E+02
   8.500  0.9154E+01  0.7998E+02
   8.505  0.9210E+01  0.8003E+02
   8.510  0.9265E+01  0.8007E+02
   8.515  0.9320E+01  0.8012E+02
   8.520  0.9375E+01  0.8017E+02
   8.525  0.9428E+01  0.8021E+02
   8.530  0.9480E+01  0.8026E+02
   8.535  0.9532E+01  0.8031E+02
   8.540  0.9582E+01  0.8036E+02
   8.545  0.9631E+01  0.8040E+02
   8.550  0.9678E+01  0.8045E+02
   8.555  0.9724E+01  0.8050E+02
   8.560  0.9768E+01  0.8055E+02
   8.565  0.9810E+01  0.8060E+02
   8.570  0.9851E+01  0.8065E+02
   8.575  0.9890E+01  0.8070E+02
   8.580  0.9926E+01  0.8075E+02
   8.585  0.9961E+01  0.8080E+02
   8.590  0.9994E+01  0.8085E+02
   8.595  0.1002E+02  0.8090E+02
   8.600  0.1005E+02  0.8095E+02
   8.605  0.1008E+02  0.8100E+02
   8.610  0.1010E+02  0.8105E+02
   8.615  0.1013E+02  0.8110E+02
   8.620  0.1015E+02  0.8115E+02
   8.625  0.1017E+02  0.8120E+02
   8.630  0.1019E+02  0.8125E+02
   8.635  0.1020E+02  0.8130E+02
   8.640  0.1022E+02  0.8135E+02
   8.645  0.1023E+02  0.8140E+02
   8.650  0.1024E+02  0.8146E+02
   8.655  0.1025E+02  0.8151E+02
   8.660  0.1027E+02  0.8156E+02
   8.665  0.1028E+02  0.8161E+02
   8.670  0.1029E+02  0.8166E+02
   8.675  0.1030E+02  0.8171E+02
   8.680  0.1030E+02  0.8176E+02
   8.685  0.1031E+02  0.8182E+02
   8.690  0.1032E+02  0.8187E+02
   8.695  0.1033E+02  0.8192E+02
   8.700  0.1034E+02  0.8197E+02
   8.705  0.1035E+02  0.8202E+02
   8.710  0.1037E+02  0.8207E+02
   8.715  0.1038E+02  0.8213E+02
   8.720  0.1039E+02  0.8218E+02
   8.725  0.1040E+02  0.8223E+02
   8.730  0.1042E+02  0.8228E+02
   8.735  0.1043E+02  0.8233E+02
   8.740  0.1045E+02  0.8239E+02
   8.745  0.1046E+02  0.8244E+02
   8.750  0.1048E+02  0.8249E+02
   8.755  0.1049E+02  0.8254E+02
   8.760  0.1051E+02  0.8260E+02
   8.765  0.1053E+02  0.8265E+02
   8.770  0.1055E+02  0.8270E+02
   8.775  0.1056E+02  0.8275E+02
   8.780  0.1058E+02  0.8281E+02
   8.785  0.1060E+02  0.8286E+02
   8.790  0.1061E+02  0.8291E+02
   8.795  0.1063E+02  0.8297E+02
   8.800  0.1065E+02  0.8302E+02
   8.805  0.1066E+02  0.8307E+02
   8.810  0.1067E+02  0.8313E+02
   8.815  0.1068E+02  0.8318E+02
   8.820  0.1069E+02  0.8323E+02
   8.825  0.1070E+02  0.8329E+02
   8.830  0.1071E+02  0.8334E+02
   8.835  0.1071E+02  0.8339E+02
   8.840  0.1071E+02  0.8345E+02
   8.845  0.1071E+02  0.8350E+02
   8.850  0.1071E+02  0.8355E+02
   8.855  0.1071E+02  0.8361E+02
   8.860  0.1070E+02  0.8366E+02
   8.865  0.1069E+02  0.8372E+02
   8.870  0.1067E+02  0.8377E+02
   8.875  0.1066E+02  0.8382E+02
   8.880  0.1064E+02  0.8387E+02
   8.885  0.1061E+02  0.8393E+02
   8.890  0.1059E+02  0.8398E+02
   8.895  0.1056E+02  0.8403E+02
   8.900  0.1053E+02  0.8409E+02
   8.905  0.1049E+02  0.8414E+02
   8.910  0.1045E+02  0.8419E+02
   8.915  0.1040E+02  0.8424E+02
   8.920  0.1036E+02  0.8429E+02
   8.925  0.1031E+02  0.8435E+02
   8.930  0.1025E+02  0.8440E+02
   8.935  0.1019E+02  0.8445E+02
   8.940  0.1013E+02  0.8450E+02
   8.945  0.1006E+02  0.8455E+02
   8.950  0.9992E+01  0.8460E+02
   8.955  0.9918E+01  0.8465E+02
   8.960  0.9840E+01  0.8470E+02
   8.965  0.9758E+01  0.8475E+02
   8.970  0.9672E+01  0.8480E+02
   8.975  0.9582E+01  0.8484E+02
   8.980  0.9488E+01  0.8489E+02
   8.985  0.9391E+01  0.8494E+02
   8.990  0.9290E+01  0.8498E+02
   8.995  0.9185E+01  0.8503E+02
   9.000  0.9077E+01  0.8508E+02
   9.005  0.8965E+01  0.8512E+02
   9.010  0.8851E+01  0.8516E+02
   9.015  0.8733E+01  0.8521E+02
   9.020  0.8612E+01  0.8525E+02
   9.025  0.8488E+01  0.8529E+02
   9.030  0.8361E+01  0.8534E+02
   9.035  0.8233E+01  0.8538E+02
   9.040  0.8102E+01  0.8542E+02
   9.045  0.7969E+01  0.8546E+02
   9.050  0.7835E+01  0.8550E+02
   9.055  0.7699E+01  0.8553E+02
   9.060  0.7562E+01  0.8557E+02
   9.065  0.7424E+01  0.8561E+02
   9.070  0.7286E+01  0.8565E+02
   9.075  0.7148E+01  0.8568E+02
   9.080  0.7010E+01  0.8572E+02
   9.085  0.6872E+01  0.8575E+02
   9.090  0.6735E+01  0.8578E+02
   9.095  0.6599E+01  0.8582E+02
   9.100  0.6465E+01  0.8585E+02
   9.105  0.6332E+01  0.8588E+02
   9.110  0.6202E+01  0.8591E+02
   9.115  0.6073E+01  0.8594E+02
   9.120  0.5948E+01  0.8597E+02
   9.125  0.5825E+01  0.8600E+02
   9.130  0.5706E+01  0.8603E+02
   9.135  0.5590E+01  0.8606E+02
   9.140  0.5478E+01  0.8609E+02
   9.145  0.5369E+01  0.8611E+02
   9.150  0.5265E+01  0.8614E+02
   9.155  0.5166E+01  0.8617E+02
   9.160  0.5071E+01  0.8619E+02
   9.165  0.4981E+01  0.8622E+02
   9.170  0.4896E+01  0.8624E+02
   9.175  0.4816E+01  0.8626E+02
   9.180  0.4741E+01  0.8629E+02
   9.185  0.4671E+01  0.8631E+02
   9.190  0.4608E+01  0.8633E+02
   9.195  0.4549E+01  0.8636E+02
   9.200  0.4496E+01  0.8638E+02
   9.205  0.4449E+01  0.8640E+02
   9.210  0.4407E+01  0.8642E+02
   9.215  0.4372E+01  0.8645E+02
   9.220  0.4341E+01  0.8647E+02
   9.225  0.4317E+01  0.8649E+02
   9.230  0.4297E+01  0.8651E+02
   9.235  0.4284E+01  0.8653E+02
   9.240  0.4275E+01  0.8655E+02
   9.245  0.4272E+01  0.8657E+02
   9.250  0.4274E+01  0.8660E+02
   9.255  0.4280E+01  0.8662E+02
   9.260  0.4292E+01  0.8664E+02
   9.265  0.4307E+01  0.8666E+02
   9.270  0.4327E+01  0.8668E+02
   9.275  0.4351E+01  0.8670E+02
   9.280  0.4379E+01  0.8673E+02
   9.285  0.4409E+01  0.8675E+02
   9.290  0.4443E+01  0.8677E+02
   9.295  0.4479E+01  0.8679E+02
   9.300  0.4518E+01  0.8681E+02
   9.305  0.4558E+01  0.8684E+02
   9.310  0.4600E+01  0.8686E+02
   9.315  0.4642E+01  0.8688E+02
   9.320  0.4685E+01  0.8691E+02
   9.325  0.4728E+01  0.8693E+02
   9.330  0.4771E+01  0.8695E+02
   9.335  0.4812E+01  0.8698E+02
   9.340  0.4852E+01  0.8700E+02
   9.345  0.4890E+01  0.8703E+02
   9.350  0.4925E+01  0.8705E+02
   9.355  0.4958E+01  0.8708E+02
   9.360  0.4986E+01  0.8710E+02
   9.365  0.5011E+01  0.8713E+02
   9.370  0.5032E+01  0.8715E+02
   9.375  0.5047E+01  0.8718E+02
   9.380  0.5058E+01  0.8720E+02
   9.385  0.5063E+01  0.8723E+02
   9.390  0.5061E+01  0.8725E+02
   9.395  0.5054E+01  0.8728E+02
   9.400  0.5040E+01  0.8730E+02
   9.405  0.5019E+01  0.8733E+02
   9.410  0.4992E+01  0.8735E+02
   9.415  0.4957E+01  0.8738E+02
   9.420  0.4915E+01  0.8740E+02
   9.425  0.4866E+01  0.8743E+02
   9.430  0.4810E+01  0.8745E+02
   9.435  0.4747E+01  0.8747E+02
   9.440  0.4677E+01  0.8750E+02
   9.445  0.4600E+01  0.8752E+02
   9.450  0.4517E+01  0.8754E+02
   9.455  0.4427E+01  0.8757E+02
   9.460  0.4332E+01  0.8759E+02
   9.465  0.4231E+01  0.8761E+02
   9.470  0.4124E+01  0.8763E+02
   9.475  0.4013E+01  0.8765E+02
   9.480  0.3898E+01  0.8767E+02
   9.485  0.3778E+01  0.8769E+02
   9.490  0.3655E+01  0.8771E+02
   9.495  0.3530E+01  0.8772E+02
   9.500  0.3402E+01  0.8774E+02
   9.505  0.3272E+01  0.8776E+02
   9.510  0.3141E+01  0.8777E+02
   9.515  0.3009E+01  0.8779E+02
   9.520  0.2876E+01  0.8780E+02
   9.525  0.2744E+01  0.8782E+02
   9.530  0.2613E+01  0.8783E+02
   9.535  0.2483E+01  0.8784E+02
   9.540  0.2354E+01  0.8785E+02
   9.545  0.2227E+01  0.8786E+02
   9.550  0.2103E+01  0.8787E+02
   9.555  0.1982E+01  0.8788E+02
   9.560  0.1863E+01  0.8789E+02
   9.565  0.1748E+01  0.8790E+02
   9.570  0.1637E+01  0.8791E+02
   9.575  0.1529E+01  0.8792E+02
   9.580  0.1425E+01  0.8793E+02
   9.585  0.1326E+01  0.8793E+02
   9.590  0.1230E+01  0.8794E+02
   9.595  0.1140E+01  0.8794E+02
   9.600  0.1053E+01  0.8795E+02
   9.605  0.9711E+00  0.8795E+02
   9.610  0.8934E+00  0.8796E+02
   9.615  0.8202E+00  0.8796E+02
   9.620  0.7513E+00  0.8797E+02
   9.625  0.6867E+00  0.8797E+02
   9.630  0.6262E+00  0.8797E+02
   9.635  0.5698E+00  0.8798E+02
   9.640  0.5173E+00  0.8798E+02
   9.645  0.4686E+00  0.8798E+02
   9.650  0.4235E+00  0.8798E+02
   9.655  0.3819E+00  0.8799E+02
   9.660  0.3436E+00  0.8799E+02
   9.665  0.3085E+00  0.8799E+02
   9.670  0.2763E+00  0.8799E+02
   9.675  0.2469E+00  0.8799E+02
   9.680  0.2201E+00  0.8799E+02
   9.685  0.1958E+00  0.8799E+02
   9.690  0.1738E+00  0.8799E+02
   9.695  0.1539E+00  0.8799E+02
   9.700  0.1360E+00  0.8800E+02
   9.705  0.1198E+00  0.8800E+02
   9.710  0.1054E+00  0.8800E+02
   9.715  0.9247E-01  0.8800E+02
   9.720  0.8094E-01  0.8800E+02
   9.725  0.7069E-01  0.8800E+02
   9.730  0.6159E-01  0.8800E+02
   9.735  0.5353E-01  0.8800E+02
   9.740  0.4643E-01  0.8800E+02
   9.745  0.4017E-01  0.8800E+02
   9.750  0.3467E-01  0.8800E+02
   9.755  0.2986E-01  0.8800E+02
   9.760  0.2565E-01  0.8800E+02
   9.765  0.2198E-01  0.8800E+02
   9.770  0.1880E-01  0.8800E+02
   9.775  0.1604E-01  0.8800E+02
   9.780  0.1365E-01  0.8800E+02
   9.785  0.1159E-01  0.8800E+02
   9.790  0.9814E-02  0.8800E+02
   9.795  0.8292E-02  0.8800E+02
   9.800  0.6990E-02  0.8800E+02
   9.805  0.5878E-02  0.8800E+02
   9.810  0.4931E-02  0.8800E+02
   9.815  0.4127E-02  0.8800E+02
   9.820  0.3446E-02  0.8800E+02
   9.825  0.2870E-02  0.8800E+02
   9.830  0.2385E-02  0.8800E+02
   9.835  0.1977E-02  0.8800E+02
   9.840  0.1634E-02  0.8800E+02
   9.845  0.1348E-02  0.8800E+02
   9.850  0.1109E-02  0.8800E+02
   9.855  0.9107E-03  0.8800E+02
   9.860  0.7457E-03  0.8800E+02
   9.865  0.6092E-03  0.8800E+02
   9.870  0.4964E-03  0.8800E+02
   9.875  0.4035E-03  0.8800E+02
   9.880  0.3272E-03  0.8800E+02
   9.885  0.2647E-03  0.8800E+02
   9.890  0.2136E-03  0.8800E+02
   9.895  0.1719E-03  0.8800E+02
   9.900  0.1380E-03  0.8800E+02
   9.905  0.1106E-03  0.8800E+02
   9.910  0.8833E-04  0.8800E+02
   9.915  0.7040E-04  0.8800E+02
   9.920  0.5597E-04  0.8800E+02
   9.925  0.4439E-04  0.8800E+02
   9.930  0.3511E-04  0.8800E+02
   9.935  0.2771E-04  0.8800E+02
   9.940  0.2181E-04  0.8800E+02
   9.945  0.1712E-04  0.8800E+02
   9.950  0.1341E-04  0.8800E+02
   9.955  0.1048E-04  0.8800E+02
   9.960  0.8166E-05  0.8800E+02
   9.965  0.6348E-05  0.8800E+02
   9.970  0.4922E-05  0.8800E+02
   9.975  0.3807E-05  0.8800E+02
   9.980  0.2937E-05  0.8800E+02
   9.985  0.2260E-05  0.8800E+02
   9.990  0.1735E-05  0.8800E+02
   9.995  0.1328E-05  0.8800E+02
  10.000  0.1014E-05  0.8800E+02
  10.005  0.7727E-06  0.8800E+02
  10.010  0.5872E-06  0.8800E+02
  10.015  0.4450E-06  0.8800E+02
  10.020  0.3364E-06  0.8800E+02
  10.025  0.2537E-06  0.8800E+02
  10.030  0.1908E-06  0.8800E+02
  10.035  0.1432E-06  0.8800E+02
  10.040  0.1071E-06  0.8800E+02
  10.045  0.7997E-07  0.8800E+02
  10.050  0.5954E-07  0.8800E+02
  10.055  0.4421E-07  0.8800E+02
  10.060  0.3275E-07  0.8800E+02
  10.065  0.2420E-07  0.8800E+02
  10.070  0.1783E-07  0.8800E+02
  10.075  0.1311E-07  0.8800E+02
  10.080  0.9608E-08  0.8800E+02
  10.085  0.7026E-08  0.8800E+02
  10.090  0.5125E-08  0.8800E+02
  10.095  0.3728E-08  0.8800E+02
  10.100  0.2705E-08  0.8800E+02
  10.105  0.1958E-08  0.8800E+02
  10.110  0.1413E-08  0.8800E+02
  10.115  0.1018E-08  0.8800E+02
  10.120  0.7308E-09  0.8800E+02
  10.125  0.5235E-09  0.8800E+02
  10.130  0.3740E-09  0.8800E+02
  10.135  0.2665E-09  0.8800E+02
  10.140  0.1894E-09  0.8800E+02
  10.145  0.1343E-09  0.8800E+02
  10.150  0.9496E-10  0.8800E+02
  10.155  0.6697E-10  0.8800E+02
  10.160  0.4710E-10  0.8800E+02
  10.165  0.3305E-10  0.8800E+02
  10.170  0.2313E-10  0.8800E+02
  10.175  0.1614E-10  0.8800E+02
  10.180  0.1124E-10  0.8800E+02
  10.185  0.7801E-11  0.8800E+02
  10.190  0.5402E-11  0.8800E+02
  10.195  0.3731E-11  0.8800E+02
  10.200  0.2571E-11  0.8800E+02
  10.205  0.1766E-11  0.8800E+02
  10.210  0.1210E-11  0.8800E+02
  10.215  0.8273E-12  0.8800E+02
  10.220  0.5640E-12  0.8800E+02
  10.225  0.3835E-12  0.8800E+02
  10.230  0.2601E-12  0.8800E+02
  10.235  0.1759E-12  0.8800E+02
  10.240  0.1187E-12  0.8800E+02
  10.245  0.7986E-13  0.8800E+02
  10.250  0.5359E-13  0.8800E+02
  10.255  0.3587E-13  0.8800E+02
  10.260  0.2395E-13  0.8800E+02
  10.265  0.1595E-13  0.8800E+02
  10.270  0.1059E-13  0.8800E+02
  10.275  0.7014E-14  0.8800E+02
  10.280  0.4634E-14  0.8800E+02
  10.285  0.3053E-14  0.8800E+02
  10.290  0.2006E-14  0.8800E+02
  10.295  0.1315E-14  0.8800E+02
  10.300  0.8596E-15  0.8800E+02
  10.305  0.5604E-15  0.8800E+02
  10.310  0.3644E-15  0.8800E+02
  10.315  0.2364E-15  0.8800E+02
  10.320  0.1529E-15  0.8800E+02
  10.325  0.9864E-16  0.8800E+02
  10.330  0.6347E-16  0.8800E+02
  10.335  0.4073E-16  0.8800E+02
  10.340  0.2607E-16  0.8800E+02
  10.345  0.1664E-16  0.8800E+02
  10.350  0.1060E-16  0.8800E+02
  10.355  0.6729E-17  0.8800E+02
  10.360  0.4262E-17  0.8800E+02
  10.365  0.2692E-17  0.8800E+02
  10.370  0.1696E-17  0.8800E+02
  10.375  0.1066E-17  0.8800E+02
  10.380  0.6679E-18  0.8800E+02
  10.385  0.4174E-18  0.8800E+02
  10.390  0.2602E-18  0.8800E+02
  10.395  0.1618E-18  0.8800E+02
  10.400  0.1003E-18  0.8800E+02
  10.405  0.6205E-19  0.8800E+02
  10.410  0.3827E-19  0.8800E+02
  10.415  0.2355E-19  0.8800E+02
  10.420  0.1445E-19  0.8800E+02
  10.425  0.8840E-20  0.8800E+02
  10.430  0.5396E-20  0.8800E+02
  10.435  0.3284E-20  0.8800E+02
  10.440  0.1994E-20  0.8800E+02
  10.445  0.1207E-20  0.8800E+02
  10.450  0.7291E-21  0.8800E+02
  10.455  0.4391E-21  0.8800E+02
  10.460  0.2638E-21  0.8800E+02
  10.465  0.1580E-21  0.8800E+02
  10.470  0.9442E-22  0.8800E+02
  10.475  0.5627E-22  0.8800E+02
  10.480  0.3344E-22  0.8800E+02
  10.485  0.1983E-22  0.8800E+02
  10.490  0.1172E-22  0.8800E+02
  10.495  0.6911E-23  0.8800E+02
  10.500  0.4064E-23  0.8800E+02
  10.505  0.2384E-23  0.8800E+02
  10.510  0.1394E-23  0.8800E+02
  10.515  0.8135E-24  0.8800E+02
  10.520  0.4734E-24  0.8800E+02
  10.525  0.2747E-24  0.8800E+02
  10.530  0.1590E-24  0.8800E+02
  10.535  0.9178E-25  0.8800E+02
  10.540  0.5284E-25  0.8800E+02
  10.545  0.3034E-25  0.8800E+02
  10.550  0.1737E-25  0.8800E+02
  10.555  0.9923E-26  0.8800E+02
  10.560  0.5652E-26  0.8800E+02
  10.565  0.3211E-26  0.8800E+02
  10.570  0.1819E-26  0.8800E+02
  10.575  0.1028E-26  0.8800E+02
  10.580  0.5794E-27  0.8800E+02
  10.585  0.3257E-27  0.8800E+02
  10.590  0.1826E-27  0.8800E+02
  10.595  0.1021E-27  0.8800E+02
  10.600  0.5693E-28  0.8800E+02
  10.605  0.3167E-28  0.8800E+02
  10.610  0.1758E-28  0.8800E+02
  10.615  0.9752E-29  0.8800E+02
  10.620  0.5430E-29  0.8800E+02
  10.625  0.3077E-29  0.8800E+02
  10.630  0.1851E-29  0.8800E+02
  10.635  0.1307E-29  0.8800E+02
  10.640  0.1242E-29  0.8800E+02
  10.645  0.1628E-29  0.8800E+02
  10.650  0.2590E-29  0.8800E+02
  10.655  0.4453E-29  0.8800E+02
  10.660  0.7846E-29  0.8800E+02
  10.665  0.1390E-28  0.8800E+02
  10.670  0.2464E-28  0.8800E+02
  10.675  0.4357E-28  0.8800E+02
  10.680  0.7687E-28  0.8800E+02
  10.685  0.1353E-27  0.8800E+02
  10.690  0.2374E-27  0.8800E+02
  10.695  0.4154E-27  0.8800E+02
  10.700  0.7251E-27  0.8800E+02
  10.705  0.1262E-26  0.8800E+02
  10.710  0.2191E-26  0.8800E+02
  10.715  0.3793E-26  0.8800E+02
  10.720  0.6550E-26  0.8800E+02
  10.725  0.1128E-25  0.8800E+02
  10.730  0.1937E-25  0.8800E+02
  10.735  0.3318E-25  0.8800E+02
  10.740  0.5667E-25  0.8800E+02
  10.745  0.9653E-25  0.8800E+02
  10.750  0.1640E-24  0.8800E+02
  10.755  0.2779E-24  0.8800E+02
  10.760  0.4695E-24  0.8800E+02
  10.765  0.7913E-24  0.8800E+02
  10.770  0.1330E-23  0.8800E+02
  10.775  0.2229E-23  0.8800E+02
  10.780  0.3726E-23  0.8800E+02
  10.785  0.6211E-23  0.8800E+02
  10.790  0.1033E-22  0.8800E+02
  10.795  0.1712E-22  0.8800E+02
  10.800  0.2831E-22  0.8800E+02
  10.805  0.4670E-22  0.8800E+02
  10.810  0.7680E-22  0.8800E+02
  10.815  0.1260E-21  0.8800E+02
  10.820  0.2061E-21  0.8800E+02
  10.825  0.3362E-21  0.8800E+02
  10.830  0.5470E-21  0.8800E+02
  10.835  0.8876E-21  0.8800E+02
  10.840  0.1436E-20  0.8800E+02
  10.845  0.2318E-20  0.8800E+02
  10.850  0.3731E-20  0.8800E+02
  10.855  0.5990E-20  0.8800E+02
  10.860  0.9589E-20  0.8800E+02
  10.865  0.1531E-19  0.8800E+02
  10.870  0.2438E-19  0.8800E+02
  10.875  0.3871E-19  0.8800E+02
  10.880  0.6130E-19  0.8800E+02
  10.885  0.9683E-19  0.8800E+02
  10.890  0.1525E-18  0.8800E+02
  10.895  0.2396E-18  0.8800E+02
  10.900  0.3754E-18  0.8800E+02
  10.905  0.5865E-18  0.8800E+02
  10.910  0.9139E-18  0.8800E+02
  10.915  0.1420E-17  0.8800E+02
  10.920  0.2201E-17  0.8800E+02
  10.925  0.3402E-17  0.8800E+02
  10.930  0.5244E-17  0.8800E+02
  10.935  0.8062E-17  0.8800E+02
  10.940  0.1236E-16  0.8800E+02
  10.945  0.1890E-16  0.8800E+02
  10.950  0.2882E-16  0.8800E+02
  10.955  0.4383E-16  0.8800E+02
  10.960  0.6648E-16  0.8800E+02
  10.965  0.1006E-15  0.8800E+02
  10.970  0.1517E-15  0.8800E+02
  10.975  0.2282E-15  0.8800E+02
  10.980  0.3424E-15  0.8800E+02
  10.985  0.5124E-15  0.8800E+02
  10.990  0.7646E-15  0.8800E+02
  10.995  0.1138E-14  0.8800E+02
  11.000  0.1689E-14  0.8800E+02
  11.005  0.2500E-14  0.8800E+02
  11.010  0.3691E-14  0.8800E+02
  11.015  0.5435E-14  0.8800E+02
  11.020  0.7980E-14  0.8800E+02
  11.025  0.1169E-13  0.8800E+02
  11.030  0.1707E-13  0.8800E+02
  11.035  0.2486E-13  0.8800E+02
  11.040  0.3611E-13  0.8800E+02
  11.045  0.5231E-13  0.8800E+02
  11.050  0.7557E-13  0.8800E+02
  11.055  0.1089E-12  0.8800E+02
  11.060  0.1565E-12  0.8800E+02
  11.065  0.2242E-12  0.8800E+02
  11.070  0.3205E-12  0.8800E+02
  11.075  0.4568E-12  0.8800E+02
  11.080  0.6493E-12  0.8800E+02
  11.085  0.9205E-12  0.8800E+02
  11.090  0.1301E-11  0.8800E+02
  11.095  0.1835E-11  0.8800E+02
  11.100  0.2581E-11  0.8800E+02
  11.105  0.3619E-11  0.8800E+02
  11.110  0.5062E-11  0.8800E+02
  11.115  0.7061E-11  0.8800E+02
  11.120  0.9823E-11  0.8800E+02
  11.125  0.1363E-10  0.8800E+02
  11.130  0.1886E-10  0.8800E+02
  11.135  0.2602E-10  0.8800E+02
  11.140  0.3581E-10  0.8800E+02
  11.145  0.4915E-10  0.8800E+02
  11.150  0.6728E-10  0.8800E+02
  11.155  0.9184E-10  0.8800E+02
  11.160  0.1250E-09  0.8800E+02
  11.165  0.1698E-09  0.8800E+02
  11.170  0.2299E-09  0.8800E+02
  11.175  0.3104E-09  0.8800E+02
  11.180  0.4181E-09  0.8800E+02
  11.185  0.5616E-09  0.8800E+02
  11.190  0.7523E-09  0.8800E+02
  11.195  0.1005E-08  0.8800E+02
  11.200  0.1339E-08  0.8800E+02
  11.205  0.1779E-08  0.8800E+02
  11.210  0.2358E-08  0.8800E+02
  11.215  0.3116E-08  0.8800E+02
  11.220  0.4107E-08  0.8800E+02
  11.225  0.5399E-08  0.8800E+02
  11.230  0.7078E-08  0.8800E+02
  11.235  0.9255E-08  0.8800E+02
  11.240  0.1207E-07  0.8800E+02
  11.245  0.1569E-07  0.8800E+02
  11.250  0.2035E-07  0.8800E+02
  11.255  0.2633E-07  0.8800E+02
  11.260  0.3396E-07  0.8800E+02
  11.265  0.4369E-07  0.8800E+02
  11.270  0.5605E-07  0.8800E+02
  11.275  0.7173E-07  0.8800E+02
  11.280  0.9153E-07  0.8800E+02
  11.285  0.1165E-06  0.8800E+02
  11.290  0.1479E-06  0.8800E+02
  11.295  0.1872E-06  0.8800E+02
  11.300  0.2363E-06  0.8800E+02
  11.305  0.2976E-06  0.8800E+02
  11.310  0.3737E-06  0.8800E+02
  11.315  0.4680E-06  0.8800E+02
  11.320  0.5846E-06  0.8800E+02
  11.325  0.7283E-06  0.8800E+02
  11.330  0.9048E-06  0.8800E+02
  11.335  0.1121E-05  0.8800E+02
  11.340  0.1385E-05  0.8800E+02
  11.345  0.1707E-05  0.8800E+02
  11.350  0.2099E-05  0.8800E+02
  11.355  0.2573E-05  0.8800E+02
  11.360  0.3146E-05  0.8800E+02
  11.365  0.3836E-05  0.8800E+02
  11.370  0.4665E-05  0.8800E+02
  11.375  0.5659E-05  0.8800E+02
  11.380  0.6846E-05  0.8800E+02
  11.385  0.8260E-05  0.8800E+02
  11.390  0.9940E-05  0.8800E+02
  11.395  0.1193E-04  0.8800E+02
  11.400  0.1428E-04  0.8800E+02
  11.405  0.1705E-04  0.8800E+02
  11.410  0.2030E-04  0.8800E+02
  11.415  0.2411E-04  0.8800E+02
  11.420  0.2856E-04  0.8800E+02
  11.425  0.3374E-04  0.8800E+02
  11.430  0.3976E-04  0.8800E+02
  11.435  0.4674E-04  0.8800E+02
  11.440  0.5479E-04  0.8800E+02
  11.445  0.6407E-04  0.8800E+02
  11.450  0.7473E-04  0.8800E+02
  11.455  0.8693E-04  0.8800E+02
  11.460  0.1009E-03  0.8800E+02
  11.465  0.1168E-03  0.8800E+02
  11.470  0.1348E-03  0.8800E+02
  11.475  0.1552E-03  0.8800E+02
  11.480  0.1783E-03  0.8800E+02
  11.485  0.2044E-03  0.8800E+02
  11.490  0.2336E-03  0.8800E+02
  11.495  0.2664E-03  0.8800E+02
  11.500  0.3030E-03  0.8800E+02
  11.505  0.3439E-03  0.8800E+02
  11.510  0.3893E-03  0.8800E+02
  11.515  0.4396E-03  0.8800E+02
  11.520  0.4953E-03  0.8800E+02
  11.525  0.5568E-03  0.8800E+02
  11.530  0.6245E-03  0.8800E+02
  11.535  0.6987E-03  0.8800E+02
  11.540  0.7801E-03  0.8800E+02
  11.545  0.8690E-03  0.8800E+02
  11.550  0.9658E-03  0.8800E+02
  11.555  0.1071E-02  0.8800E+02
  11.560  0.1185E-02  0.8800E+02
  11.565  0.1309E-02  0.8800E+02
  11.570  0.1443E-02  0.8800E+02
  11.575  0.1587E-02  0.8800E+02
  11.580  0.1742E-02  0.8800E+02
  11.585  0.1908E-02  0.8800E+02
  11.590  0.2086E-02  0.8800E+02
  11.595  0.2277E-02  0.8800E+02
  11.600  0.2480E-02  0.8800E+02
  11.605  0.2697E-02  0.8800E+02
  11.610  0.2927E-02  0.8800E+02
  11.615  0.3172E-02  0.8800E+02
  11.620  0.3431E-02  0.8800E+02
  11.625  0.3705E-02  0.8800E+02
  11.630  0.3995E-02  0.8800E+02
  11.635  0.4301E-02  0.8800E+02
  11.640  0.4624E-02  0.8800E+02
  11.645  0.4963E-02  0.8800E+02
  11.650  0.5320E-02  0.8800E+02
  11.655  0.5694E-02  0.8800E+02
  11.660  0.6086E-02  0.8800E+02
  11.665  0.6497E-02  0.8800E+02
  11.670  0.6926E-02  0.8800E+02
  11.675  0.7374E-02  0.8800E+02
  11.680  0.7842E-02  0.8800E+02
  11.685  0.8329E-02  0.8800E+02
  11.690  0.8835E-02  0.8800E+02
  11.695  0.9361E-02  0.8800E+02
  11.700  0.9906E-02  0.8800E+02
  11.705  0.1047E-01  0.8800E+02
  11.710  0.1105E-01  0.8800E+02
  11.715  0.1166E-01  0.8800E+02
  11.720  0.1228E-01  0.8800E+02
  11.725  0.1292E-01  0.8800E+02
  11.730  0.1357E-01  0.8800E+02
  11.735  0.1425E-01  0.8800E+02
  11.740  0.1493E-01  0.8800E+02
  11.745  0.1563E-01  0.8800E+02
  11.750  0.1635E-01  0.8800E+02
  11.755  0.1707E-01  0.8800E+02
  11.760  0.1781E-01  0.8800E+02
  11.765  0.1855E-01  0.8800E+02
  11.770  0.1929E-01  0.8800E+02
  11.775  0.2004E-01  0.8800E+02
  11.780  0.2079E-01  0.8800E+02
  11.785  0.2153E-01  0.8800E+02
  11.790  0.2227E-01  0.8800E+02
  11.795  0.2301E-01  0.8800E+02
  11.800  0.2373E-01  0.8800E+02
  11.805  0.2444E-01  0.8800E+02
  11.810  0.2513E-01  0.8800E+02
  11.815  0.2580E-01  0.8800E+02
  11.820  0.2645E-01  0.8800E+02
  11.825  0.2708E-01  0.8800E+02
  11.830  0.2768E-01  0.8800E+02
  11.835  0.2824E-01  0.8800E+02
  11.840  0.2878E-01  0.8800E+02
  11.845  0.2928E-01  0.8800E+02
  11.850  0.2974E-01  0.8800E+02
  11.855  0.3017E-01  0.8800E+02
  11.860  0.3055E-01  0.8800E+02
  11.865  0.3090E-01  0.8800E+02
  11.870  0.3120E-01  0.8800E+02
  11.875  0.3147E-01  0.8800E+02
  11.880  0.3169E-01  0.8800E+02
  11.885  0.3188E-01  0.8800E+02
  11.890  0.3203E-01  0.8801E+02
  11.895  0.3214E-01  0.8801E+02
  11.900  0.3222E-01  0.8801E+02
  11.905  0.3226E-01  0.8801E+02
  11.910  0.3228E-01  0.8801E+02
  11.915  0.3227E-01  0.8801E+02
  11.920  0.3224E-01  0.8801E+02
  11.925  0.3219E-01  0.8801E+02
  11.930  0.3213E-01  0.8801E+02
  11.935  0.3206E-01  0.8801E+02
  11.940  0.3198E-01  0.8801E+02
  11.945  0.3191E-01  0.8801E+02
  11.950  0.3184E-01  0.8801E+02
  11.955  0.3179E-01  0.8801E+02
  11.960  0.3175E-01  0.8801E+02
  11.965  0.3174E-01  0.8801E+02
  11.970  0.3175E-01  0.8801E+02
  11.975  0.3180E-01  0.8801E+02
  11.980  0.3189E-01  0.8801E+02
  11.985  0.3203E-01  0.8801E+02
  11.990  0.3221E-01  0.8801E+02
  11.995  0.3246E-01  0.8801E+02
  12.000  0.3276E-01  0.8801E+02
  12.005  0.3314E-01  0.8801E+02
  12.010  0.3358E-01  0.8801E+02
  12.015  0.3410E-01  0.8801E+02
  12.020  0.3469E-01  0.8801E+02
  12.025  0.3537E-01  0.8801E+02
  12.030  0.3614E-01  0.8801E+02
  12.035  0.3699E-01  0.8801E+02
  12.040  0.3793E-01  0.8801E+02
  12.045  0.3896E-01  0.8801E+02
  12.050  0.4009E-01  0.8801E+02
  12.055  0.4130E-01  0.8801E+02
  12.060  0.4261E-01  0.8801E+02
  12.065  0.4401E-01  0.8801E+02
  12.070  0.4550E-01  0.8801E+02
  12.075  0.4707E-01  0.8801E+02
  12.080  0.4873E-01  0.8801E+02
  12.085  0.5047E-01  0.8801E+02
  12.090  0.5229E-01  0.8801E+02
  12.095  0.5418E-01  0.8801E+02
  12.100  0.5614E-01  0.8801E+02
  12.105  0.5816E-01  0.8801E+02
  12.110  0.6023E-01  0.8801E+02
  12.115  0.6235E-01  0.8801E+02
  12.120  0.6452E-01  0.8801E+02
  12.125  0.6673E-01  0.8801E+02
  12.130  0.6896E-01  0.8801E+02
  12.135  0.7121E-01  0.8802E+02
  12.140  0.7348E-01  0.8802E+02
  12.145  0.7575E-01  0.8802E+02
  12.150  0.7803E-01  0.8802E+02
  12.155  0.8029E-01  0.8802E+02
  12.160  0.8254E-01  0.8802E+02
  12.165  0.8476E-01  0.8802E+02
  12.170  0.8695E-01  0.8802E+02
  12.175  0.8911E-01  0.8802E+02
  12.180  0.9122E-01  0.8802E+02
  12.185  0.9329E-01  0.8802E+02
  12.190  0.9530E-01  0.8802E+02
  12.195  0.9725E-01  0.8802E+02
  12.200  0.9913E-01  0.8802E+02
  12.205  0.1010E+00  0.8802E+02
  12.210  0.1027E+00  0.8802E+02
  12.215  0.1044E+00  0.8802E+02
  12.220  0.1060E+00  0.8802E+02
  12.225  0.1075E+00  0.8802E+02
  12.230  0.1089E+00  0.8802E+02
  12.235  0.1102E+00  0.8802E+02
  12.240  0.1115E+00  0.8802E+02
  12.245  0.1126E+00  0.8803E+02
  12.250  0.1137E+00  0.8803E+02
  12.255  0.1147E+00  0.8803E+02
  12.260  0.1156E+00  0.8803E+02
  12.265  0.1164E+00  0.8803E+02
  12.270  0.1172E+00  0.8803E+02
  12.275  0.1178E+00  0.8803E+02
  12.280  0.1183E+00  0.8803E+02
  12.285  0.1188E+00  0.8803E+02
  12.290  0.1192E+00  0.8803E+02
  12.295  0.1195E+00  0.8803E+02
  12.300  0.1197E+00  0.8803E+02
  12.305  0.1198E+00  0.8803E+02
  12.310  0.1199E+00  0.8803E+02
  12.315  0.1198E+00  0.8803E+02
  12.320  0.1197E+00  0.8803E+02
  12.325  0.1196E+00  0.8803E+02
  12.330  0.1193E+00  0.8804E+02
  12.335  0.1190E+00  0.8804E+02
  12.340  0.1186E+00  0.8804E+02
  12.345  0.1182E+00  0.8804E+02
  12.350  0.1177E+00  0.8804E+02
  12.355  0.1172E+00  0.8804E+02
  12.360  0.1166E+00  0.8804E+02
  12.365  0.1160E+00  0.8804E+02
  12.370  0.1154E+00  0.8804E+02
  12.375  0.1148E+00  0.8804E+02
  12.380  0.1141E+00  0.8804E+02
  12.385  0.1134E+00  0.8804E+02
  12.390  0.1128E+00  0.8804E+02
  12.395  0.1121E+00  0.8804E+02
  12.400  0.1115E+00  0.8804E+02
  12.405  0.1109E+00  0.8804E+02
  12.410  0.1104E+00  0.8804E+02
  12.415  0.1099E+00  0.8805E+02
  12.420  0.1095E+00  0.8805E+02
  12.425  0.1091E+00  0.8805E+02
  12.430  0.1088E+00  0.8805E+02
  12.435  0.1087E+00  0.8805E+02
  12.440  0.1086E+00  0.8805E+02
  12.445  0.1086E+00  0.8805E+02
  12.450  0.1087E+00  0.8805E+02
  12.455  0.1090E+00  0.8805E+02
  12.460  0.1093E+00  0.8805E+02
  12.465  0.1098E+00  0.8805E+02
  12.470  0.1104E+00  0.8805E+02
  12.475  0.1112E+00  0.8805E+02
  12.480  0.1121E+00  0.8805E+02
  12.485  0.1131E+00  0.8805E+02
  12.490  0.1142E+00  0.8805E+02
  12.495  0.1155E+00  0.8805E+02
  12.500  0.1169E+00  0.8805E+02
  12.505  0.1184E+00  0.8806E+02
  12.510  0.1200E+00  0.8806E+02
  12.515  0.1217E+00  0.8806E+02
  12.520  0.1236E+00  0.8806E+02
  12.525  0.1254E+00  0.8806E+02
  12.530  0.1274E+00  0.8806E+02
  12.535  0.1294E+00  0.8806E+02
  12.540  0.1315E+00  0.8806E+02
  12.545  0.1336E+00  0.8806E+02
  12.550  0.1357E+00  0.8806E+02
  12.555  0.1379E+00  0.8806E+02
  12.560  0.1400E+00  0.8806E+02
  12.565  0.1421E+00  0.8806E+02
  12.570  0.1441E+00  0.8806E+02
  12.575  0.1462E+00  0.8806E+02
  12.580  0.1481E+00  0.8807E+02
  12.585  0.1500E+00  0.8807E+02
  12.590  0.1518E+00  0.8807E+02
  12.595  0.1534E+00  0.8807E+02
  12.600  0.1550E+00  0.8807E+02
  12.605  0.1565E+00  0.8807E+02
  12.610  0.1578E+00  0.8807E+02
  12.615  0.1590E+00  0.8807E+02
  12.620  0.1601E+00  0.8807E+02
  12.625  0.1610E+00  0.8807E+02
  12.630  0.1617E+00  0.8807E+02
  12.635  0.1624E+00  0.8807E+02
  12.640  0.1628E+00  0.8807E+02
  12.645  0.1632E+00  0.8808E+02
  12.650  0.1634E+00  0.8808E+02
  12.655  0.1634E+00  0.8808E+02
  12.660  0.1633E+00  0.8808E+02
  12.665  0.1631E+00  0.8808E+02
  12.670  0.1628E+00  0.8808E+02
  12.675  0.1624E+00  0.8808E+02
  12.680  0.1618E+00  0.8808E+02
  12.685  0.1612E+00  0.8808E+02
  12.690  0.1605E+00  0.8808E+02
  12.695  0.1597E+00  0.8808E+02
  12.700  0.1588E+00  0.8808E+02
  12.705  0.1579E+00  0.8809E+02
  12.710  0.1569E+00  0.8809E+02
  12.715  0.1560E+00  0.8809E+02
  12.720  0.1549E+00  0.8809E+02
  12.725  0.1539E+00  0.8809E+02
  12.730  0.1529E+00  0.8809E+02
  12.735  0.1518E+00  0.8809E+02
  12.740  0.1508E+00  0.8809E+02
  12.745  0.1497E+00  0.8809E+02
  12.750  0.1487E+00  0.8809E+02
  12.755  0.1478E+00  0.8809E+02
  12.760  0.1468E+00  0.8809E+02
  12.765  0.1459E+00  0.8809E+02
  12.770  0.1450E+00  0.8810E+02
  12.775  0.1442E+00  0.8810E+02
  12.780  0.1434E+00  0.8810E+02
  12.785  0.1426E+00  0.8810E+02
  12.790  0.1419E+00  0.8810E+02
  12.795  0.1413E+00  0.8810E+02
  12.800  0.1407E+00  0.8810E+02
  12.805  0.1402E+00  0.8810E+02
  12.810  0.1397E+00  0.8810E+02
  12.815  0.1393E+00  0.8810E+02
  12.820  0.1390E+00  0.8810E+02
  12.825  0.1387E+00  0.8810E+02
  12.830  0.1386E+00  0.8810E+02
  12.835  0.1385E+00  0.8810E+02
  12.840  0.1385E+00  0.8810E+02
  12.845  0.1386E+00  0.8811E+02
  12.850  0.1388E+00  0.8811E+02
  12.855  0.1391E+00  0.8811E+02
  12.860  0.1395E+00  0.8811E+02
  12.865  0.1401E+00  0.8811E+02
  12.870  0.1408E+00  0.8811E+02
  12.875  0.1416E+00  0.8811E+02
  12.880  0.1426E+00  0.8811E+02
  12.885  0.1437E+00  0.8811E+02
  12.890  0.1450E+00  0.8811E+02
  12.895  0.1465E+00  0.8811E+02
  12.900  0.1481E+00  0.8811E+02
  12.905  0.1499E+00  0.8811E+02
  12.910  0.1519E+00  0.8811E+02
  12.915  0.1542E+00  0.8812E+02
  12.920  0.1566E+00  0.8812E+02
  12.925  0.1592E+00  0.8812E+02
  12.930  0.1620E+00  0.8812E+02
  12.935  0.1650E+00  0.8812E+02
  12.940  0.1681E+00  0.8812E+02
  12.945  0.1715E+00  0.8812E+02
  12.950  0.1751E+00  0.8812E+02
  12.955  0.1789E+00  0.8812E+02
  12.960  0.1828E+00  0.8812E+02
  12.965  0.1869E+00  0.8812E+02
  12.970  0.1912E+00  0.8813E+02
  12.975  0.1956E+00  0.8813E+02
  12.980  0.2001E+00  0.8813E+02
  12.985  0.2047E+00  0.8813E+02
  12.990  0.2095E+00  0.8813E+02
  12.995  0.2143E+00  0.8813E+02
  13.000  0.2192E+00  0.8813E+02
  13.005  0.2242E+00  0.8813E+02
  13.010  0.2291E+00  0.8813E+02
  13.015  0.2341E+00  0.8813E+02
  13.020  0.2391E+00  0.8814E+02
  13.025  0.2440E+00  0.8814E+02
  13.030  0.2489E+00  0.8814E+02
  13.035  0.2537E+00  0.8814E+02
  13.040  0.2584E+00  0.8814E+02
  13.045  0.2631E+00  0.8814E+02
  13.050  0.2675E+00  0.8814E+02
  13.055  0.2718E+00  0.8815E+02
  13.060  0.2760E+00  0.8815E+02
  13.065  0.2799E+00  0.8815E+02
  13.070  0.2837E+00  0.8815E+02
  13.075  0.2872E+00  0.8815E+02
  13.080  0.2905E+00  0.8815E+02
  13.085  0.2935E+00  0.8815E+02
  13.090  0.2963E+00  0.8816E+02
  13.095  0.2988E+00  0.8816E+02
  13.100  0.3011E+00  0.8816E+02
  13.105  0.3031E+00  0.8816E+02
  13.110  0.3048E+00  0.8816E+02
  13.115  0.3062E+00  0.8816E+02
  13.120  0.3074E+00  0.8816E+02
  13.125  0.3083E+00  0.8817E+02
  13.130  0.3090E+00  0.8817E+02
  13.135  0.3094E+00  0.8817E+02
  13.140  0.3095E+00  0.8817E+02
  13.145  0.3095E+00  0.8817E+02
  13.150  0.3092E+00  0.8817E+02
  13.155  0.3087E+00  0.8818E+02
  13.160  0.3080E+00  0.8818E+02
  13.165  0.3072E+00  0.8818E+02
  13.170  0.3062E+00  0.8818E+02
  13.175  0.3051E+00  0.8818E+02
  13.180  0.3039E+00  0.8818E+02
  13.185  0.3026E+00  0.8818E+02
  13.190  0.3012E+00  0.8819E+02
  13.195  0.2998E+00  0.8819E+02
  13.200  0.2984E+00  0.8819E+02
  13.205  0.2969E+00  0.8819E+02
  13.210  0.2955E+00  0.8819E+02
  13.215  0.2941E+00  0.8819E+02
  13.220  0.2928E+00  0.8819E+02
  13.225  0.2915E+00  0.8820E+02
  13.230  0.2903E+00  0.8820E+02
  13.235  0.2893E+00  0.8820E+02
  13.240  0.2883E+00  0.8820E+02
  13.245  0.2875E+00  0.8820E+02
  13.250  0.2868E+00  0.8820E+02
  13.255  0.2862E+00  0.8820E+02
  13.260  0.2858E+00  0.8821E+02
  13.265  0.2856E+00  0.8821E+02
  13.270  0.2856E+00  0.8821E+02
  13.275  0.2857E+00  0.8821E+02
  13.280  0.2860E+00  0.8821E+02
  13.285  0.2864E+00  0.8821E+02
  13.290  0.2871E+00  0.8821E+02
  13.295  0.2879E+00  0.8822E+02
  13.300  0.2889E+00  0.8822E+02
  13.305  0.2900E+00  0.8822E+02
  13.310  0.2913E+00  0.8822E+02
  13.315  0.2928E+00  0.8822E+02
  13.320  0.2944E+00  0.8822E+02
  13.325  0.2962E+00  0.8822E+02
  13.330  0.2981E+00  0.8823E+02
  13.335  0.3001E+00  0.8823E+02
  13.340  0.3022E+00  0.8823E+02
  13.345  0.3045E+00  0.8823E+02
  13.350  0.3068E+00  0.8823E+02
  13.355  0.3093E+00  0.8823E+02
  13.360  0.3118E+00  0.8824E+02
  13.365  0.3144E+00  0.8824E+02
  13.370  0.3170E+00  0.8824E+02
  13.375  0.3197E+00  0.8824E+02
  13.380  0.3224E+00  0.8824E+02
  13.385  0.3252E+00  0.8824E+02
  13.390  0.3279E+00  0.8825E+02
  13.395  0.3307E+00  0.8825E+02
  13.400  0.3335E+00  0.8825E+02
  13.405  0.3362E+00  0.8825E+02
  13.410  0.3389E+00  0.8825E+02
  13.415  0.3416E+00  0.8825E+02
  13.420  0.3443E+00  0.8826E+02
  13.425  0.3469E+00  0.8826E+02
  13.430  0.3494E+00  0.8826E+02
  13.435  0.3519E+00  0.8826E+02
  13.440  0.3543E+00  0.8826E+02
  13.445  0.3566E+00  0.8826E+02
  13.450  0.3589E+00  0.8827E+02
  13.455  0.3610E+00  0.8827E+02
  13.460  0.3631E+00  0.8827E+02
  13.465  0.3651E+00  0.8827E+02
  13.470  0.3669E+00  0.8827E+02
  13.475  0.3687E+00  0.8828E+02
  13.480  0.3704E+00  0.8828E+02
  13.485  0.3720E+00  0.8828E+02
  13.490  0.3734E+00  0.8828E+02
  13.495  0.3748E+00  0.8828E+02
  13.500  0.3761E+00  0.8828E+02
  13.505  0.3772E+00  0.8829E+02
  13.510  0.3783E+00  0.8829E+02
  13.515  0.3793E+00  0.8829E+02
  13.520  0.3801E+00  0.8829E+02
  13.525  0.3809E+00  0.8829E+02
  13.530  0.3816E+00  0.8830E+02
  13.535  0.3822E+00  0.8830E+02
  13.540  0.3827E+00  0.8830E+02
  13.545  0.3831E+00  0.8830E+02
  13.550  0.3834E+00  0.8830E+02
  13.555  0.3836E+00  0.8831E+02
  13.560  0.3838E+00  0.8831E+02
  13.565  0.3838E+00  0.8831E+02
  13.570  0.3838E+00  0.8831E+02
  13.575  0.3837E+00  0.8831E+02
  13.580  0.3835E+00  0.8831E+02
  13.585  0.3832E+00  0.8832E+02
  13.590  0.3829E+00  0.8832E+02
  13.595  0.3824E+00  0.8832E+02
  13.600  0.3819E+00  0.8832E+02
  13.605  0.3812E+00  0.8832E+02
  13.610  0.3805E+00  0.8833E+02
  13.615  0.3798E+00  0.8833E+02
  13.620  0.3789E+00  0.8833E+02
  13.625  0.3779E+00  0.8833E+02
  13.630  0.3769E+00  0.8833E+02
  13.635  0.3758E+00  0.8834E+02
  13.640  0.3747E+00  0.8834E+02
  13.645  0.3735E+00  0.8834E+02
  13.650  0.3723E+00  0.8834E+02
  13.655  0.3710E+00  0.8834E+02
  13.660  0.3697E+00  0.8835E+02
  13.665  0.3683E+00  0.8835E+02
  13.670  0.3670E+00  0.8835E+02
  13.675  0.3657E+00  0.8835E+02
  13.680  0.3645E+00  0.8835E+02
  13.685  0.3632E+00  0.8835E+02
  13.690  0.3621E+00  0.8836E+02
  13.695  0.3610E+00  0.8836E+02
  13.700  0.3600E+00  0.8836E+02
  13.705  0.3592E+00  0.8836E+02
  13.710  0.3585E+00  0.8836E+02
  13.715  0.3580E+00  0.8837E+02
  13.720  0.3576E+00  0.8837E+02
  13.725  0.3575E+00  0.8837E+02
  13.730  0.3575E+00  0.8837E+02
  13.735  0.3578E+00  0.8837E+02
  13.740  0.3584E+00  0.8837E+02
  13.745  0.3592E+00  0.8838E+02
  13.750  0.3603E+00  0.8838E+02
  13.755  0.3616E+00  0.8838E+02
  13.760  0.3633E+00  0.8838E+02
  13.765  0.3652E+00  0.8838E+02
  13.770  0.3675E+00  0.8838E+02
  13.775  0.3700E+00  0.8839E+02
  13.780  0.3728E+00  0.8839E+02
  13.785  0.3759E+00  0.8839E+02
  13.790  0.3792E+00  0.8839E+02
  13.795  0.3829E+00  0.8839E+02
  13.800  0.3867E+00  0.8840E+02
  13.805  0.3908E+00  0.8840E+02
  13.810  0.3951E+00  0.8840E+02
  13.815  0.3996E+00  0.8840E+02
  13.820  0.4042E+00  0.8840E+02
  13.825  0.4090E+00  0.8841E+02
  13.830  0.4138E+00  0.8841E+02
  13.835  0.4188E+00  0.8841E+02
  13.840  0.4238E+00  0.8841E+02
  13.845  0.4289E+00  0.8841E+02
  13.850  0.4339E+00  0.8842E+02
  13.855  0.4390E+00  0.8842E+02
  13.860  0.4440E+00  0.8842E+02
  13.865  0.4489E+00  0.8842E+02
  13.870  0.4537E+00  0.8843E+02
  13.875  0.4584E+00  0.8843E+02
  13.880  0.4630E+00  0.8843E+02
  13.885  0.4674E+00  0.8843E+02
  13.890  0.4717E+00  0.8844E+02
  13.895  0.4758E+00  0.8844E+02
  13.900  0.4798E+00  0.8844E+02
  13.905  0.4836E+00  0.8844E+02
  13.910  0.4871E+00  0.8844E+02
  13.915  0.4905E+00  0.8845E+02
  13.920  0.4938E+00  0.8845E+02
  13.925  0.4968E+00  0.8845E+02
  13.930  0.4997E+00  0.8845E+02
  13.935  0.5024E+00  0.8846E+02
  13.940  0.5050E+00  0.8846E+02
  13.945  0.5075E+00  0.8846E+02
  13.950  0.5098E+00  0.8846E+02
  13.955  0.5120E+00  0.8847E+02
  13.960  0.5142E+00  0.8847E+02
  13.965  0.5163E+00  0.8847E+02
  13.970  0.5183E+00  0.8848E+02
  13.975  0.5204E+00  0.8848E+02
  13.980  0.5224E+00  0.8848E+02
  13.985  0.5244E+00  0.8848E+02
  13.990  0.5264E+00  0.8849E+02
  13.995  0.5285E+00  0.8849E+02
  14.000  0.5306E+00  0.8849E+02
  14.005  0.5328E+00  0.8849E+02
  14.010  0.5350E+00  0.8850E+02
  14.015  0.5373E+00  0.8850E+02
  14.020  0.5397E+00  0.8850E+02
  14.025  0.5422E+00  0.8850E+02
  14.030  0.5448E+00  0.8851E+02
  14.035  0.5475E+00  0.8851E+02
  14.040  0.5503E+00  0.8851E+02
  14.045  0.5532E+00  0.8852E+02
  14.050  0.5562E+00  0.8852E+02
  14.055  0.5592E+00  0.8852E+02
  14.060  0.5624E+00  0.8852E+02
  14.065  0.5657E+00  0.8853E+02
  14.070  0.5691E+00  0.8853E+02
  14.075  0.5725E+00  0.8853E+02
  14.080  0.5760E+00  0.8854E+02
  14.085  0.5796E+00  0.8854E+02
  14.090  0.5832E+00  0.8854E+02
  14.095  0.5869E+00  0.8854E+02
  14.100  0.5906E+00  0.8855E+02
  14.105  0.5944E+00  0.8855E+02
  14.110  0.5982E+00  0.8855E+02
  14.115  0.6021E+00  0.8856E+02
  14.120  0.6059E+00  0.8856E+02
  14.125  0.6098E+00  0.8856E+02
  14.130  0.6137E+00  0.8856E+02
  14.135  0.6177E+00  0.8857E+02
  14.140  0.6216E+00  0.8857E+02
  14.145  0.6255E+00  0.8857E+02
  14.150  0.6295E+00  0.8858E+02
  14.155  0.6334E+00  0.8858E+02
  14.160  0.6373E+00  0.8858E+02
  14.165  0.6412E+00  0.8859E+02
  14.170  0.6451E+00  0.8859E+02
  14.175  0.6490E+00  0.8859E+02
  14.180  0.6529E+00  0.8860E+02
  14.185  0.6567E+00  0.8860E+02
  14.190  0.6605E+00  0.8860E+02
  14.195  0.6642E+00  0.8861E+02
  14.200  0.6679E+00  0.8861E+02
  14.205  0.6716E+00  0.8861E+02
  14.210  0.6752E+00  0.8862E+02
  14.215  0.6788E+00  0.8862E+02
  14.220  0.6823E+00  0.8862E+02
  14.225  0.6857E+00  0.8863E+02
  14.230  0.6891E+00  0.8863E+02
  14.235  0.6924E+00  0.8863E+02
  14.240  0.6956E+00  0.8864E+02
  14.245  0.6987E+00  0.8864E+02
  14.250  0.7018E+00  0.8864E+02
  14.255  0.7048E+00  0.8865E+02
  14.260  0.7077E+00  0.8865E+02
  14.265  0.7105E+00  0.8865E+02
  14.270  0.7133E+00  0.8866E+02
  14.275  0.7160E+00  0.8866E+02
  14.280  0.7186E+00  0.8867E+02
  14.285  0.7211E+00  0.8867E+02
  14.290  0.7236E+00  0.8867E+02
  14.295  0.7260E+00  0.8868E+02
  14.300  0.7284E+00  0.8868E+02
  14.305  0.7307E+00  0.8868E+02
  14.310  0.7330E+00  0.8869E+02
  14.315  0.7352E+00  0.8869E+02
  14.320  0.7375E+00  0.8869E+02
  14.325  0.7397E+00  0.8870E+02
  14.330  0.7419E+00  0.8870E+02
  14.335  0.7441E+00  0.8871E+02
  14.340  0.7464E+00  0.8871E+02
  14.345  0.7486E+00  0.8871E+02
  14.350  0.7509E+00  0.8872E+02
  14.355  0.7531E+00  0.8872E+02
  14.360  0.7555E+00  0.8872E+02
  14.365  0.7578E+00  0.8873E+02
  14.370  0.7602E+00  0.8873E+02
  14.375  0.7625E+00  0.8874E+02
  14.380  0.7650E+00  0.8874E+02
  14.385  0.7674E+00  0.8874E+02
  14.390  0.7698E+00  0.8875E+02
  14.395  0.7723E+00  0.8875E+02
  14.400  0.7747E+00  0.8876E+02
  14.405  0.7772E+00  0.8876E+02
  14.410  0.7796E+00  0.8876E+02
  14.415  0.7820E+00  0.8877E+02
  14.420  0.7843E+00  0.8877E+02
  14.425  0.7866E+00  0.8877E+02
  14.430  0.7888E+00  0.8878E+02
  14.435  0.7909E+00  0.8878E+02
  14.440  0.7929E+00  0.8879E+02
  14.445  0.7948E+00  0.8879E+02
  14.450  0.7966E+00  0.8879E+02
  14.455  0.7983E+00  0.8880E+02
  14.460  0.7998E+00  0.8880E+02
  14.465  0.8012E+00  0.8881E+02
  14.470  0.8024E+00  0.8881E+02
  14.475  0.8035E+00  0.8881E+02
  14.480  0.8044E+00  0.8882E+02
  14.485  0.8052E+00  0.8882E+02
  14.490  0.8059E+00  0.8883E+02
  14.495  0.8065E+00  0.8883E+02
  14.500  0.8069E+00  0.8883E+02
  14.505  0.8072E+00  0.8884E+02
  14.510  0.8075E+00  0.8884E+02
  14.515  0.8077E+00  0.8885E+02
  14.520  0.8078E+00  0.8885E+02
  14.525  0.8080E+00  0.8886E+02
  14.530  0.8082E+00  0.8886E+02
  14.535  0.8084E+00  0.8886E+02
  14.540  0.8087E+00  0.8887E+02
  14.545  0.8091E+00  0.8887E+02
  14.550  0.8096E+00  0.8888E+02
  14.555  0.8103E+00  0.8888E+02
  14.560  0.8113E+00  0.8888E+02
  14.565  0.8124E+00  0.8889E+02
  14.570  0.8138E+00  0.8889E+02
  14.575  0.8154E+00  0.8890E+02
  14.580  0.8174E+00  0.8890E+02
  14.585  0.8197E+00  0.8890E+02
  14.590  0.8224E+00  0.8891E+02
  14.595  0.8253E+00  0.8891E+02
  14.600  0.8287E+00  0.8892E+02
  14.605  0.8324E+00  0.8892E+02
  14.610  0.8366E+00  0.8892E+02
  14.615  0.8410E+00  0.8893E+02
  14.620  0.8459E+00  0.8893E+02
  14.625  0.8511E+00  0.8894E+02
  14.630  0.8567E+00  0.8894E+02
  14.635  0.8626E+00  0.8895E+02
  14.640  0.8688E+00  0.8895E+02
  14.645  0.8753E+00  0.8895E+02
  14.650  0.8821E+00  0.8896E+02
  14.655  0.8891E+00  0.8896E+02
  14.660  0.8963E+00  0.8897E+02
  14.665  0.9037E+00  0.8897E+02
  14.670  0.9112E+00  0.8898E+02
  14.675  0.9188E+00  0.8898E+02
  14.680  0.9265E+00  0.8899E+02
  14.685  0.9342E+00  0.8899E+02
  14.690  0.9419E+00  0.8900E+02
  14.695  0.9496E+00  0.8900E+02
  14.700  0.9572E+00  0.8901E+02
  14.705  0.9647E+00  0.8901E+02
  14.710  0.9721E+00  0.8901E+02
  14.715  0.9793E+00  0.8902E+02
  14.720  0.9863E+00  0.8902E+02
  14.725  0.9932E+00  0.8903E+02
  14.730  0.9998E+00  0.8903E+02
  14.735  0.1006E+01  0.8904E+02
  14.740  0.1012E+01  0.8904E+02
  14.745  0.1018E+01  0.8905E+02
  14.750  0.1024E+01  0.8905E+02
  14.755  0.1030E+01  0.8906E+02
  14.760  0.1035E+01  0.8907E+02
  14.765  0.1040E+01  0.8907E+02
  14.770  0.1045E+01  0.8908E+02
  14.775  0.1050E+01  0.8908E+02
  14.780  0.1054E+01  0.8909E+02
  14.785  0.1059E+01  0.8909E+02
  14.790  0.1063E+01  0.8910E+02
  14.795  0.1067E+01  0.8910E+02
  14.800  0.1072E+01  0.8911E+02
  14.805  0.1076E+01  0.8911E+02
  14.810  0.1080E+01  0.8912E+02
  14.815  0.1085E+01  0.8912E+02
  14.820  0.1089E+01  0.8913E+02
  14.825  0.1094E+01  0.8913E+02
  14.830  0.1099E+01  0.8914E+02
  14.835  0.1104E+01  0.8915E+02
  14.840  0.1109E+01  0.8915E+02
  14.845  0.1115E+01  0.8916E+02
  14.850  0.1121E+01  0.8916E+02
  14.855  0.1128E+01  0.8917E+02
  14.860  0.1135E+01  0.8917E+02
  14.865  0.1142E+01  0.8918E+02
  14.870  0.1150E+01  0.8919E+02
  14.875  0.1159E+01  0.8919E+02
  14.880  0.1168E+01  0.8920E+02
  14.885  0.1178E+01  0.8920E+02
  14.890  0.1189E+01  0.8921E+02
  14.895  0.1201E+01  0.8921E+02
  14.900  0.1213E+01  0.8922E+02
  14.905  0.1226E+01  0.8923E+02
  14.910  0.1240E+01  0.8923E+02
  14.915  0.1255E+01  0.8924E+02
  14.920  0.1271E+01  0.8925E+02
  14.925  0.1288E+01  0.8925E+02
  14.930  0.1306E+01  0.8926E+02
  14.935  0.1324E+01  0.8927E+02
  14.940  0.1344E+01  0.8927E+02
  14.945  0.1365E+01  0.8928E+02
  14.950  0.1386E+01  0.8929E+02
  14.955  0.1409E+01  0.8929E+02
  14.960  0.1433E+01  0.8930E+02
  14.965  0.1457E+01  0.8931E+02
  14.970  0.1483E+01  0.8931E+02
  14.975  0.1509E+01  0.8932E+02
  14.980  0.1536E+01  0.8933E+02
  14.985  0.1565E+01  0.8934E+02
  14.990  0.1594E+01  0.8935E+02
  14.995  0.1623E+01  0.8935E+02
  15.000  0.1654E+01  0.8936E+02
  15.005  0.1685E+01  0.8937E+02
  15.010  0.1716E+01  0.8938E+02
  15.015  0.1748E+01  0.8939E+02
  15.020  0.1781E+01  0.8940E+02
  15.025  0.1814E+01  0.8941E+02
  15.030  0.1847E+01  0.8941E+02
  15.035  0.1880E+01  0.8942E+02
  15.040  0.1913E+01  0.8943E+02
  15.045  0.1947E+01  0.8944E+02
  15.050  0.1980E+01  0.8945E+02
  15.055  0.2013E+01  0.8946E+02
  15.060  0.2046E+01  0.8947E+02
  15.065  0.2078E+01  0.8948E+02
  15.070  0.2110E+01  0.8949E+02
  15.075  0.2141E+01  0.8951E+02
  15.080  0.2171E+01  0.8952E+02
  15.085  0.2201E+01  0.8953E+02
  15.090  0.2230E+01  0.8954E+02
  15.095  0.2257E+01  0.8955E+02
  15.100  0.2284E+01  0.8956E+02
  15.105  0.2310E+01  0.8957E+02
  15.110  0.2335E+01  0.8958E+02
  15.115  0.2358E+01  0.8960E+02
  15.120  0.2380E+01  0.8961E+02
  15.125  0.2401E+01  0.8962E+02
  15.130  0.2420E+01  0.8963E+02
  15.135  0.2438E+01  0.8964E+02
  15.140  0.2455E+01  0.8966E+02
  15.145  0.2470E+01  0.8967E+02
  15.150  0.2484E+01  0.8968E+02
  15.155  0.2497E+01  0.8969E+02
  15.160  0.2508E+01  0.8971E+02
  15.165  0.2519E+01  0.8972E+02
  15.170  0.2527E+01  0.8973E+02
  15.175  0.2535E+01  0.8974E+02
  15.180  0.2542E+01  0.8976E+02
  15.185  0.2547E+01  0.8977E+02
  15.190  0.2552E+01  0.8978E+02
  15.195  0.2556E+01  0.8980E+02
  15.200  0.2559E+01  0.8981E+02
  15.205  0.2561E+01  0.8982E+02
  15.210  0.2563E+01  0.8983E+02
  15.215  0.2564E+01  0.8985E+02
  15.220  0.2565E+01  0.8986E+02
  15.225  0.2565E+01  0.8987E+02
  15.230  0.2566E+01  0.8988E+02
  15.235  0.2566E+01  0.8990E+02
  15.240  0.2566E+01  0.8991E+02
  15.245  0.2567E+01  0.8992E+02
  15.250  0.2567E+01  0.8994E+02
  15.255  0.2568E+01  0.8995E+02
  15.260  0.2570E+01  0.8996E+02
  15.265  0.2572E+01  0.8997E+02
  15.270  0.2574E+01  0.8999E+02
  15.275  0.2577E+01  0.9000E+02
  15.280  0.2581E+01  0.9001E+02
  15.285  0.2585E+01  0.9003E+02
  15.290  0.2590E+01  0.9004E+02
  15.295  0.2596E+01  0.9005E+02
  15.300  0.2602E+01  0.9007E+02
  15.305  0.2610E+01  0.9008E+02
  15.310  0.2618E+01  0.9009E+02
  15.315  0.2627E+01  0.9010E+02
  15.320  0.2636E+01  0.9012E+02
  15.325  0.2647E+01  0.9013E+02
  15.330  0.2658E+01  0.9014E+02
  15.335  0.2670E+01  0.9016E+02
  15.340  0.2682E+01  0.9017E+02
  15.345  0.2695E+01  0.9018E+02
  15.350  0.2709E+01  0.9020E+02
  15.355  0.2723E+01  0.9021E+02
  15.360  0.2737E+01  0.9023E+02
  15.365  0.2752E+01  0.9024E+02
  15.370  0.2767E+01  0.9025E+02
  15.375  0.2783E+01  0.9027E+02
  15.380  0.2798E+01  0.9028E+02
  15.385  0.2814E+01  0.9030E+02
  15.390  0.2830E+01  0.9031E+02
  15.395  0.2846E+01  0.9032E+02
  15.400  0.2861E+01  0.9034E+02
  15.405  0.2877E+01  0.9035E+02
  15.410  0.2893E+01  0.9037E+02
  15.415  0.2908E+01  0.9038E+02
  15.420  0.2923E+01  0.9040E+02
  15.425  0.2938E+01  0.9041E+02
  15.430  0.2953E+01  0.9043E+02
  15.435  0.2968E+01  0.9044E+02
  15.440  0.2982E+01  0.9045E+02
  15.445  0.2996E+01  0.9047E+02
  15.450  0.3009E+01  0.9048E+02
  15.455  0.3022E+01  0.9050E+02
  15.460  0.3035E+01  0.9052E+02
  15.465  0.3047E+01  0.9053E+02
  15.470  0.3058E+01  0.9055E+02
  15.475  0.3070E+01  0.9056E+02
  15.480  0.3080E+01  0.9058E+02
  15.485  0.3091E+01  0.9059E+02
  15.490  0.3100E+01  0.9061E+02
  15.495  0.3109E+01  0.9062E+02
  15.500  0.3118E+01  0.9064E+02
  15.505  0.3126E+01  0.9065E+02
  15.510  0.3133E+01  0.9067E+02
  15.515  0.3140E+01  0.9069E+02
  15.520  0.3146E+01  0.9070E+02
  15.525  0.3152E+01  0.9072E+02
  15.530  0.3156E+01  0.9073E+02
  15.535  0.3160E+01  0.9075E+02
  15.540  0.3164E+01  0.9076E+02
  15.545  0.3167E+01  0.9078E+02
  15.550  0.3168E+01  0.9080E+02
  15.555  0.3170E+01  0.9081E+02
  15.560  0.3170E+01  0.9083E+02
  15.565  0.3170E+01  0.9084E+02
  15.570  0.3169E+01  0.9086E+02
  15.575  0.3167E+01  0.9088E+02
  15.580  0.3165E+01  0.9089E+02
  15.585  0.3161E+01  0.9091E+02
  15.590  0.3158E+01  0.9092E+02
  15.595  0.3153E+01  0.9094E+02
  15.600  0.3148E+01  0.9095E+02
  15.605  0.3142E+01  0.9097E+02
  15.610  0.3135E+01  0.9099E+02
  15.615  0.3128E+01  0.9100E+02
  15.620  0.3121E+01  0.9102E+02
  15.625  0.3113E+01  0.9103E+02
  15.630  0.3104E+01  0.9105E+02
  15.635  0.3095E+01  0.9106E+02
  15.640  0.3086E+01  0.9108E+02
  15.645  0.3076E+01  0.9109E+02
  15.650  0.3067E+01  0.9111E+02
  15.655  0.3057E+01  0.9112E+02
  15.660  0.3047E+01  0.9114E+02
  15.665  0.3037E+01  0.9116E+02
  15.670  0.3027E+01  0.9117E+02
  15.675  0.3017E+01  0.9119E+02
  15.680  0.3007E+01  0.9120E+02
  15.685  0.2998E+01  0.9122E+02
  15.690  0.2989E+01  0.9123E+02
  15.695  0.2980E+01  0.9125E+02
  15.700  0.2972E+01  0.9126E+02
  15.705  0.2964E+01  0.9128E+02
  15.710  0.2957E+01  0.9129E+02
  15.715  0.2951E+01  0.9130E+02
  15.720  0.2945E+01  0.9132E+02
  15.725  0.2941E+01  0.9133E+02
  15.730  0.2937E+01  0.9135E+02
  15.735  0.2934E+01  0.9136E+02
  15.740  0.2932E+01  0.9138E+02
  15.745  0.2931E+01  0.9139E+02
  15.750  0.2932E+01  0.9141E+02
  15.755  0.2933E+01  0.9142E+02
  15.760  0.2936E+01  0.9144E+02
  15.765  0.2940E+01  0.9145E+02
  15.770  0.2945E+01  0.9147E+02
  15.775  0.2952E+01  0.9148E+02
  15.780  0.2960E+01  0.9150E+02
  15.785  0.2969E+01  0.9151E+02
  15.790  0.2980E+01  0.9153E+02
  15.795  0.2992E+01  0.9154E+02
  15.800  0.3005E+01  0.9156E+02
  15.805  0.3020E+01  0.9157E+02
  15.810  0.3036E+01  0.9159E+02
  15.815  0.3053E+01  0.9160E+02
  15.820  0.3071E+01  0.9162E+02
  15.825  0.3091E+01  0.9163E+02
  15.830  0.3111E+01  0.9165E+02
  15.835  0.3133E+01  0.9166E+02
  15.840  0.3155E+01  0.9168E+02
  15.845  0.3179E+01  0.9169E+02
  15.850  0.3203E+01  0.9171E+02
  15.855  0.3227E+01  0.9173E+02
  15.860  0.3252E+01  0.9174E+02
  15.865  0.3278E+01  0.9176E+02
  15.870  0.3303E+01  0.9178E+02
  15.875  0.3329E+01  0.9179E+02
  15.880  0.3355E+01  0.9181E+02
  15.885  0.3381E+01  0.9183E+02
  15.890  0.3406E+01  0.9184E+02
  15.895  0.3432E+01  0.9186E+02
  15.900  0.3456E+01  0.9188E+02
  15.905  0.3481E+01  0.9190E+02
  15.910  0.3504E+01  0.9191E+02
  15.915  0.3527E+01  0.9193E+02
  15.920  0.3549E+01  0.9195E+02
  15.925  0.3570E+01  0.9197E+02
  15.930  0.3589E+01  0.9198E+02
  15.935  0.3608E+01  0.9200E+02
  15.940  0.3626E+01  0.9202E+02
  15.945  0.3642E+01  0.9204E+02
  15.950  0.3657E+01  0.9206E+02
  15.955  0.3671E+01  0.9207E+02
  15.960  0.3683E+01  0.9209E+02
  15.965  0.3695E+01  0.9211E+02
  15.970  0.3705E+01  0.9213E+02
  15.975  0.3713E+01  0.9215E+02
  15.980  0.3721E+01  0.9217E+02
  15.985  0.3727E+01  0.9219E+02
  15.990  0.3732E+01  0.9220E+02
  15.995  0.3736E+01  0.9222E+02
  16.000  0.3739E+01  0.9224E+02
  16.005  0.3741E+01  0.9226E+02
  16.010  0.3742E+01  0.9228E+02
  16.015  0.3742E+01  0.9230E+02
  16.020  0.3741E+01  0.9232E+02
  16.025  0.3740E+01  0.9234E+02
  16.030  0.3738E+01  0.9235E+02
  16.035  0.3736E+01  0.9237E+02
  16.040  0.3733E+01  0.9239E+02
  16.045  0.3730E+01  0.9241E+02
  16.050  0.3727E+01  0.9243E+02
  16.055  0.3723E+01  0.9245E+02
  16.060  0.3720E+01  0.9247E+02
  16.065  0.3716E+01  0.9248E+02
  16.070  0.3712E+01  0.9250E+02
  16.075  0.3708E+01  0.9252E+02
  16.080  0.3704E+01  0.9254E+02
  16.085  0.3701E+01  0.9256E+02
  16.090  0.3697E+01  0.9258E+02
  16.095  0.3694E+01  0.9260E+02
  16.100  0.3690E+01  0.9261E+02
  16.105  0.3687E+01  0.9263E+02
  16.110  0.3684E+01  0.9265E+02
  16.115  0.3680E+01  0.9267E+02
  16.120  0.3677E+01  0.9269E+02
  16.125  0.3674E+01  0.9271E+02
  16.130  0.3671E+01  0.9272E+02
  16.135  0.3667E+01  0.9274E+02
  16.140  0.3664E+01  0.9276E+02
  16.145  0.3660E+01  0.9278E+02
  16.150  0.3656E+01  0.9280E+02
  16.155  0.3651E+01  0.9282E+02
  16.160  0.3646E+01  0.9283E+02
  16.165  0.3641E+01  0.9285E+02
  16.170  0.3635E+01  0.9287E+02
  16.175  0.3628E+01  0.9289E+02
  16.180  0.3621E+01  0.9291E+02
  16.185  0.3613E+01  0.9293E+02
  16.190  0.3605E+01  0.9294E+02
  16.195  0.3595E+01  0.9296E+02
  16.200  0.3585E+01  0.9298E+02
  16.205  0.3574E+01  0.9300E+02
  16.210  0.3562E+01  0.9301E+02
  16.215  0.3549E+01  0.9303E+02
  16.220  0.3535E+01  0.9305E+02
  16.225  0.3521E+01  0.9307E+02
  16.230  0.3505E+01  0.9309E+02
  16.235  0.3489E+01  0.9310E+02
  16.240  0.3472E+01  0.9312E+02
  16.245  0.3453E+01  0.9314E+02
  16.250  0.3435E+01  0.9315E+02
  16.255  0.3415E+01  0.9317E+02
  16.260  0.3395E+01  0.9319E+02
  16.265  0.3374E+01  0.9321E+02
  16.270  0.3353E+01  0.9322E+02
  16.275  0.3331E+01  0.9324E+02
  16.280  0.3309E+01  0.9326E+02
  16.285  0.3286E+01  0.9327E+02
  16.290  0.3263E+01  0.9329E+02
  16.295  0.3240E+01  0.9330E+02
  16.300  0.3218E+01  0.9332E+02
  16.305  0.3195E+01  0.9334E+02
  16.310  0.3172E+01  0.9335E+02
  16.315  0.3149E+01  0.9337E+02
  16.320  0.3127E+01  0.9338E+02
  16.325  0.3105E+01  0.9340E+02
  16.330  0.3083E+01  0.9341E+02
  16.335  0.3062E+01  0.9343E+02
  16.340  0.3041E+01  0.9345E+02
  16.345  0.3021E+01  0.9346E+02
  16.350  0.3002E+01  0.9348E+02
  16.355  0.2983E+01  0.9349E+02
  16.360  0.2966E+01  0.9350E+02
  16.365  0.2948E+01  0.9352E+02
  16.370  0.2932E+01  0.9353E+02
  16.375  0.2917E+01  0.9355E+02
  16.380  0.2902E+01  0.9356E+02
  16.385  0.2889E+01  0.9358E+02
  16.390  0.2876E+01  0.9359E+02
  16.395  0.2864E+01  0.9361E+02
  16.400  0.2853E+01  0.9362E+02
  16.405  0.2843E+01  0.9364E+02
  16.410  0.2833E+01  0.9365E+02
  16.415  0.2824E+01  0.9366E+02
  16.420  0.2816E+01  0.9368E+02
  16.425  0.2809E+01  0.9369E+02
  16.430  0.2802E+01  0.9371E+02
  16.435  0.2796E+01  0.9372E+02
  16.440  0.2791E+01  0.9373E+02
  16.445  0.2786E+01  0.9375E+02
  16.450  0.2781E+01  0.9376E+02
  16.455  0.2777E+01  0.9378E+02
  16.460  0.2773E+01  0.9379E+02
  16.465  0.2769E+01  0.9380E+02
  16.470  0.2765E+01  0.9382E+02
  16.475  0.2761E+01  0.9383E+02
  16.480  0.2758E+01  0.9384E+02
  16.485  0.2754E+01  0.9386E+02
  16.490  0.2751E+01  0.9387E+02
  16.495  0.2747E+01  0.9389E+02
  16.500  0.2743E+01  0.9390E+02
  16.505  0.2739E+01  0.9391E+02
  16.510  0.2734E+01  0.9393E+02
  16.515  0.2730E+01  0.9394E+02
  16.520  0.2725E+01  0.9395E+02
  16.525  0.2720E+01  0.9397E+02
  16.530  0.2714E+01  0.9398E+02
  16.535  0.2709E+01  0.9399E+02
  16.540  0.2702E+01  0.9401E+02
  16.545  0.2696E+01  0.9402E+02
  16.550  0.2689E+01  0.9404E+02
  16.555  0.2683E+01  0.9405E+02
  16.560  0.2675E+01  0.9406E+02
  16.565  0.2668E+01  0.9408E+02
  16.570  0.2661E+01  0.9409E+02
  16.575  0.2653E+01  0.9410E+02
  16.580  0.2645E+01  0.9411E+02
  16.585  0.2637E+01  0.9413E+02
  16.590  0.2629E+01  0.9414E+02
  16.595  0.2621E+01  0.9415E+02
  16.600  0.2614E+01  0.9417E+02
  16.605  0.2606E+01  0.9418E+02
  16.610  0.2598E+01  0.9419E+02
  16.615  0.2591E+01  0.9421E+02
  16.620  0.2584E+01  0.9422E+02
  16.625  0.2577E+01  0.9423E+02
  16.630  0.2570E+01  0.9425E+02
  16.635  0.2564E+01  0.9426E+02
  16.640  0.2558E+01  0.9427E+02
  16.645  0.2553E+01  0.9428E+02
  16.650  0.2548E+01  0.9430E+02
  16.655  0.2544E+01  0.9431E+02
  16.660  0.2540E+01  0.9432E+02
  16.665  0.2537E+01  0.9433E+02
  16.670  0.2535E+01  0.9435E+02
  16.675  0.2533E+01  0.9436E+02
  16.680  0.2532E+01  0.9437E+02
  16.685  0.2532E+01  0.9439E+02
  16.690  0.2533E+01  0.9440E+02
  16.695  0.2534E+01  0.9441E+02
  16.700  0.2537E+01  0.9442E+02
  16.705  0.2540E+01  0.9444E+02
  16.710  0.2544E+01  0.9445E+02
  16.715  0.2549E+01  0.9446E+02
  16.720  0.2555E+01  0.9447E+02
  16.725  0.2562E+01  0.9449E+02
  16.730  0.2570E+01  0.9450E+02
  16.735  0.2579E+01  0.9451E+02
  16.740  0.2589E+01  0.9453E+02
  16.745  0.2600E+01  0.9454E+02
  16.750  0.2612E+01  0.9455E+02
  16.755  0.2625E+01  0.9456E+02
  16.760  0.2639E+01  0.9458E+02
  16.765  0.2654E+01  0.9459E+02
  16.770  0.2670E+01  0.9460E+02
  16.775  0.2686E+01  0.9462E+02
  16.780  0.2704E+01  0.9463E+02
  16.785  0.2722E+01  0.9465E+02
  16.790  0.2741E+01  0.9466E+02
  16.795  0.2760E+01  0.9467E+02
  16.800  0.2780E+01  0.9469E+02
  16.805  0.2801E+01  0.9470E+02
  16.810  0.2822E+01  0.9471E+02
  16.815  0.2843E+01  0.9473E+02
  16.820  0.2865E+01  0.9474E+02
  16.825  0.2887E+01  0.9476E+02
  16.830  0.2909E+01  0.9477E+02
  16.835  0.2931E+01  0.9479E+02
  16.840  0.2952E+01  0.9480E+02
  16.845  0.2974E+01  0.9482E+02
  16.850  0.2996E+01  0.9483E+02
  16.855  0.3017E+01  0.9485E+02
  16.860  0.3038E+01  0.9486E+02
  16.865  0.3059E+01  0.9488E+02
  16.870  0.3079E+01  0.9489E+02
  16.875  0.3099E+01  0.9491E+02
  16.880  0.3118E+01  0.9492E+02
  16.885  0.3137E+01  0.9494E+02
  16.890  0.3155E+01  0.9495E+02
  16.895  0.3172E+01  0.9497E+02
  16.900  0.3189E+01  0.9499E+02
  16.905  0.3205E+01  0.9500E+02
  16.910  0.3220E+01  0.9502E+02
  16.915  0.3234E+01  0.9503E+02
  16.920  0.3248E+01  0.9505E+02
  16.925  0.3261E+01  0.9507E+02
  16.930  0.3274E+01  0.9508E+02
  16.935  0.3285E+01  0.9510E+02
  16.940  0.3296E+01  0.9512E+02
  16.945  0.3307E+01  0.9513E+02
  16.950  0.3316E+01  0.9515E+02
  16.955  0.3325E+01  0.9517E+02
  16.960  0.3334E+01  0.9518E+02
  16.965  0.3342E+01  0.9520E+02
  16.970  0.3349E+01  0.9522E+02
  16.975  0.3355E+01  0.9523E+02
  16.980  0.3361E+01  0.9525E+02
  16.985  0.3367E+01  0.9527E+02
  16.990  0.3372E+01  0.9528E+02
  16.995  0.3376E+01  0.9530E+02
  17.000  0.3380E+01  0.9532E+02
  17.005  0.3383E+01  0.9533E+02
  17.010  0.3386E+01  0.9535E+02
  17.015  0.3388E+01  0.9537E+02
  17.020  0.3389E+01  0.9539E+02
  17.025  0.3390E+01  0.9540E+02
  17.030  0.3390E+01  0.9542E+02
  17.035  0.3390E+01  0.9544E+02
  17.040  0.3388E+01  0.9545E+02
  17.045  0.3387E+01  0.9547E+02
  17.050  0.3384E+01  0.9549E+02
  17.055  0.3381E+01  0.9550E+02
  17.060  0.3377E+01  0.9552E+02
  17.065  0.3373E+01  0.9554E+02
  17.070  0.3368E+01  0.9555E+02
  17.075  0.3362E+01  0.9557E+02
  17.080  0.3356E+01  0.9559E+02
  17.085  0.3348E+01  0.9560E+02
  17.090  0.3341E+01  0.9562E+02
  17.095  0.3333E+01  0.9564E+02
  17.100  0.3324E+01  0.9565E+02
  17.105  0.3315E+01  0.9567E+02
  17.110  0.3305E+01  0.9569E+02
  17.115  0.3295E+01  0.9570E+02
  17.120  0.3285E+01  0.9572E+02
  17.125  0.3274E+01  0.9574E+02
  17.130  0.3263E+01  0.9575E+02
  17.135  0.3252E+01  0.9577E+02
  17.140  0.3241E+01  0.9579E+02
  17.145  0.3230E+01  0.9580E+02
  17.150  0.3219E+01  0.9582E+02
  17.155  0.3207E+01  0.9583E+02
  17.160  0.3196E+01  0.9585E+02
  17.165  0.3185E+01  0.9587E+02
  17.170  0.3175E+01  0.9588E+02
  17.175  0.3164E+01  0.9590E+02
  17.180  0.3154E+01  0.9591E+02
  17.185  0.3145E+01  0.9593E+02
  17.190  0.3135E+01  0.9595E+02
  17.195  0.3126E+01  0.9596E+02
  17.200  0.3117E+01  0.9598E+02
  17.205  0.3109E+01  0.9599E+02
  17.210  0.3101E+01  0.9601E+02
  17.215  0.3093E+01  0.9602E+02
  17.220  0.3086E+01  0.9604E+02
  17.225  0.3079E+01  0.9605E+02
  17.230  0.3072E+01  0.9607E+02
  17.235  0.3066E+01  0.9608E+02
  17.240  0.3059E+01  0.9610E+02
  17.245  0.3053E+01  0.9611E+02
  17.250  0.3047E+01  0.9613E+02
  17.255  0.3040E+01  0.9615E+02
  17.260  0.3034E+01  0.9616E+02
  17.265  0.3027E+01  0.9618E+02
  17.270  0.3020E+01  0.9619E+02
  17.275  0.3013E+01  0.9621E+02
  17.280  0.3006E+01  0.9622E+02
  17.285  0.2998E+01  0.9624E+02
  17.290  0.2989E+01  0.9625E+02
  17.295  0.2980E+01  0.9627E+02
  17.300  0.2970E+01  0.9628E+02
  17.305  0.2959E+01  0.9630E+02
  17.310  0.2948E+01  0.9631E+02
  17.315  0.2936E+01  0.9632E+02
  17.320  0.2923E+01  0.9634E+02
  17.325  0.2909E+01  0.9635E+02
  17.330  0.2894E+01  0.9637E+02
  17.335  0.2878E+01  0.9638E+02
  17.340  0.2861E+01  0.9640E+02
  17.345  0.2843E+01  0.9641E+02
  17.350  0.2824E+01  0.9643E+02
  17.355  0.2804E+01  0.9644E+02
  17.360  0.2783E+01  0.9645E+02
  17.365  0.2761E+01  0.9647E+02
  17.370  0.2739E+01  0.9648E+02
  17.375  0.2715E+01  0.9649E+02
  17.380  0.2690E+01  0.9651E+02
  17.385  0.2665E+01  0.9652E+02
  17.390  0.2639E+01  0.9653E+02
  17.395  0.2612E+01  0.9655E+02
  17.400  0.2584E+01  0.9656E+02
  17.405  0.2556E+01  0.9657E+02
  17.410  0.2527E+01  0.9659E+02
  17.415  0.2498E+01  0.9660E+02
  17.420  0.2468E+01  0.9661E+02
  17.425  0.2438E+01  0.9662E+02
  17.430  0.2408E+01  0.9663E+02
  17.435  0.2377E+01  0.9665E+02
  17.440  0.2346E+01  0.9666E+02
  17.445  0.2315E+01  0.9667E+02
  17.450  0.2284E+01  0.9668E+02
  17.455  0.2253E+01  0.9669E+02
  17.460  0.2223E+01  0.9670E+02
  17.465  0.2192E+01  0.9671E+02
  17.470  0.2162E+01  0.9673E+02
  17.475  0.2132E+01  0.9674E+02
  17.480  0.2103E+01  0.9675E+02
  17.485  0.2074E+01  0.9676E+02
  17.490  0.2046E+01  0.9677E+02
  17.495  0.2018E+01  0.9678E+02
  17.500  0.1991E+01  0.9679E+02
  17.505  0.1965E+01  0.9680E+02
  17.510  0.1941E+01  0.9681E+02
  17.515  0.1917E+01  0.9682E+02
  17.520  0.1894E+01  0.9683E+02
  17.525  0.1872E+01  0.9684E+02
  17.530  0.1852E+01  0.9684E+02
  17.535  0.1833E+01  0.9685E+02
  17.540  0.1816E+01  0.9686E+02
  17.545  0.1800E+01  0.9687E+02
  17.550  0.1786E+01  0.9688E+02
  17.555  0.1774E+01  0.9689E+02
  17.560  0.1763E+01  0.9690E+02
  17.565  0.1754E+01  0.9691E+02
  17.570  0.1747E+01  0.9692E+02
  17.575  0.1742E+01  0.9692E+02
  17.580  0.1739E+01  0.9693E+02
  17.585  0.1738E+01  0.9694E+02
  17.590  0.1739E+01  0.9695E+02
  17.595  0.1742E+01  0.9696E+02
  17.600  0.1747E+01  0.9697E+02
  17.605  0.1755E+01  0.9698E+02
  17.610  0.1765E+01  0.9699E+02
  17.615  0.1776E+01  0.9699E+02
  17.620  0.1790E+01  0.9700E+02
  17.625  0.1806E+01  0.9701E+02
  17.630  0.1824E+01  0.9702E+02
  17.635  0.1845E+01  0.9703E+02
  17.640  0.1867E+01  0.9704E+02
  17.645  0.1891E+01  0.9705E+02
  17.650  0.1917E+01  0.9706E+02
  17.655  0.1944E+01  0.9707E+02
  17.660  0.1974E+01  0.9708E+02
  17.665  0.2005E+01  0.9709E+02
  17.670  0.2037E+01  0.9710E+02
  17.675  0.2071E+01  0.9711E+02
  17.680  0.2106E+01  0.9712E+02
  17.685  0.2143E+01  0.9713E+02
  17.690  0.2180E+01  0.9714E+02
  17.695  0.2218E+01  0.9715E+02
  17.700  0.2257E+01  0.9716E+02
  17.705  0.2297E+01  0.9718E+02
  17.710  0.2337E+01  0.9719E+02
  17.715  0.2378E+01  0.9720E+02
  17.720  0.2419E+01  0.9721E+02
  17.725  0.2460E+01  0.9722E+02
  17.730  0.2501E+01  0.9724E+02
  17.735  0.2542E+01  0.9725E+02
  17.740  0.2583E+01  0.9726E+02
  17.745  0.2623E+01  0.9727E+02
  17.750  0.2664E+01  0.9729E+02
  17.755  0.2703E+01  0.9730E+02
  17.760  0.2742E+01  0.9732E+02
  17.765  0.2781E+01  0.9733E+02
  17.770  0.2818E+01  0.9734E+02
  17.775  0.2855E+01  0.9736E+02
  17.780  0.2891E+01  0.9737E+02
  17.785  0.2926E+01  0.9739E+02
  17.790  0.2960E+01  0.9740E+02
  17.795  0.2993E+01  0.9742E+02
  17.800  0.3025E+01  0.9743E+02
  17.805  0.3056E+01  0.9745E+02
  17.810  0.3085E+01  0.9746E+02
  17.815  0.3114E+01  0.9748E+02
  17.820  0.3141E+01  0.9749E+02
  17.825  0.3167E+01  0.9751E+02
  17.830  0.3192E+01  0.9753E+02
  17.835  0.3216E+01  0.9754E+02
  17.840  0.3239E+01  0.9756E+02
  17.845  0.3260E+01  0.9757E+02
  17.850  0.3280E+01  0.9759E+02
  17.855  0.3300E+01  0.9761E+02
  17.860  0.3318E+01  0.9762E+02
  17.865  0.3335E+01  0.9764E+02
  17.870  0.3351E+01  0.9766E+02
  17.875  0.3366E+01  0.9767E+02
  17.880  0.3380E+01  0.9769E+02
  17.885  0.3393E+01  0.9771E+02
  17.890  0.3405E+01  0.9772E+02
  17.895  0.3417E+01  0.9774E+02
  17.900  0.3427E+01  0.9776E+02
  17.905  0.3437E+01  0.9778E+02
  17.910  0.3446E+01  0.9779E+02
  17.915  0.3455E+01  0.9781E+02
  17.920  0.3462E+01  0.9783E+02
  17.925  0.3469E+01  0.9785E+02
  17.930  0.3476E+01  0.9786E+02
  17.935  0.3482E+01  0.9788E+02
  17.940  0.3487E+01  0.9790E+02
  17.945  0.3493E+01  0.9791E+02
  17.950  0.3497E+01  0.9793E+02
  17.955  0.3501E+01  0.9795E+02
  17.960  0.3505E+01  0.9797E+02
  17.965  0.3509E+01  0.9798E+02
  17.970  0.3512E+01  0.9800E+02
  17.975  0.3515E+01  0.9802E+02
  17.980  0.3518E+01  0.9804E+02
  17.985  0.3520E+01  0.9806E+02
  17.990  0.3523E+01  0.9807E+02
  17.995  0.3525E+01  0.9809E+02
  18.000  0.3527E+01  0.9811E+02
  18.005  0.3528E+01  0.9813E+02
  18.010  0.3530E+01  0.9814E+02
  18.015  0.3531E+01  0.9816E+02
  18.020  0.3532E+01  0.9818E+02
  18.025  0.3533E+01  0.9820E+02
  18.030  0.3533E+01  0.9821E+02
  18.035  0.3534E+01  0.9823E+02
  18.040  0.3534E+01  0.9825E+02
  18.045  0.3534E+01  0.9827E+02
  18.050  0.3533E+01  0.9828E+02
  18.055  0.3533E+01  0.9830E+02
  18.060  0.3532E+01  0.9832E+02
  18.065  0.3531E+01  0.9834E+02
  18.070  0.3529E+01  0.9836E+02
  18.075  0.3527E+01  0.9837E+02
  18.080  0.3525E+01  0.9839E+02
  18.085  0.3522E+01  0.9841E+02
  18.090  0.3519E+01  0.9843E+02
  18.095  0.3515E+01  0.9844E+02
  18.100  0.3511E+01  0.9846E+02
  18.105  0.3507E+01  0.9848E+02
  18.110  0.3502E+01  0.9850E+02
  18.115  0.3496E+01  0.9851E+02
  18.120  0.3490E+01  0.9853E+02
  18.125  0.3484E+01  0.9855E+02
  18.130  0.3477E+01  0.9857E+02
  18.135  0.3469E+01  0.9858E+02
  18.140  0.3461E+01  0.9860E+02
  18.145  0.3452E+01  0.9862E+02
  18.150  0.3443E+01  0.9863E+02
  18.155  0.3433E+01  0.9865E+02
  18.160  0.3423E+01  0.9867E+02
  18.165  0.3412E+01  0.9869E+02
  18.170  0.3400E+01  0.9870E+02
  18.175  0.3388E+01  0.9872E+02
  18.180  0.3375E+01  0.9874E+02
  18.185  0.3362E+01  0.9875E+02
  18.190  0.3349E+01  0.9877E+02
  18.195  0.3335E+01  0.9879E+02
  18.200  0.3320E+01  0.9880E+02
  18.205  0.3305E+01  0.9882E+02
  18.210  0.3290E+01  0.9884E+02
  18.215  0.3275E+01  0.9885E+02
  18.220  0.3259E+01  0.9887E+02
  18.225  0.3243E+01  0.9889E+02
  18.230  0.3226E+01  0.9890E+02
  18.235  0.3210E+01  0.9892E+02
  18.240  0.3193E+01  0.9893E+02
  18.245  0.3177E+01  0.9895E+02
  18.250  0.3160E+01  0.9897E+02
  18.255  0.3143E+01  0.9898E+02
  18.260  0.3127E+01  0.9900E+02
  18.265  0.3110E+01  0.9901E+02
  18.270  0.3094E+01  0.9903E+02
  18.275  0.3078E+01  0.9904E+02
  18.280  0.3062E+01  0.9906E+02
  18.285  0.3047E+01  0.9907E+02
  18.290  0.3032E+01  0.9909E+02
  18.295  0.3017E+01  0.9910E+02
  18.300  0.3003E+01  0.9912E+02
  18.305  0.2989E+01  0.9913E+02
  18.310  0.2976E+01  0.9915E+02
  18.315  0.2963E+01  0.9916E+02
  18.320  0.2951E+01  0.9918E+02
  18.325  0.2940E+01  0.9919E+02
  18.330  0.2929E+01  0.9921E+02
  18.335  0.2918E+01  0.9922E+02
  18.340  0.2909E+01  0.9924E+02
  18.345  0.2899E+01  0.9925E+02
  18.350  0.2891E+01  0.9927E+02
  18.355  0.2883E+01  0.9928E+02
  18.360  0.2876E+01  0.9929E+02
  18.365  0.2869E+01  0.9931E+02
  18.370  0.2863E+01  0.9932E+02
  18.375  0.2857E+01  0.9934E+02
  18.380  0.2852E+01  0.9935E+02
  18.385  0.2847E+01  0.9937E+02
  18.390  0.2842E+01  0.9938E+02
  18.395  0.2838E+01  0.9939E+02
  18.400  0.2835E+01  0.9941E+02
  18.405  0.2831E+01  0.9942E+02
  18.410  0.2828E+01  0.9944E+02
  18.415  0.2826E+01  0.9945E+02
  18.420  0.2823E+01  0.9947E+02
  18.425  0.2821E+01  0.9948E+02
  18.430  0.2819E+01  0.9949E+02
  18.435  0.2817E+01  0.9951E+02
  18.440  0.2815E+01  0.9952E+02
  18.445  0.2813E+01  0.9954E+02
  18.450  0.2811E+01  0.9955E+02
  18.455  0.2810E+01  0.9956E+02
  18.460  0.2808E+01  0.9958E+02
  18.465  0.2807E+01  0.9959E+02
  18.470  0.2805E+01  0.9961E+02
  18.475  0.2804E+01  0.9962E+02
  18.480  0.2803E+01  0.9963E+02
  18.485  0.2802E+01  0.9965E+02
  18.490  0.2801E+01  0.9966E+02
  18.495  0.2800E+01  0.9968E+02
  18.500  0.2800E+01  0.9969E+02
  18.505  0.2799E+01  0.9970E+02
  18.510  0.2799E+01  0.9972E+02
  18.515  0.2799E+01  0.9973E+02
  18.520  0.2799E+01  0.9975E+02
  18.525  0.2799E+01  0.9976E+02
  18.530  0.2800E+01  0.9977E+02
  18.535  0.2801E+01  0.9979E+02
  18.540  0.2802E+01  0.9980E+02
  18.545  0.2804E+01  0.9982E+02
  18.550  0.2806E+01  0.9983E+02
  18.555  0.2808E+01  0.9984E+02
  18.560  0.2810E+01  0.9986E+02
  18.565  0.2813E+01  0.9987E+02
  18.570  0.2816E+01  0.9989E+02
  18.575  0.2819E+01  0.9990E+02
  18.580  0.2823E+01  0.9991E+02
  18.585  0.2826E+01  0.9993E+02
  18.590  0.2830E+01  0.9994E+02
  18.595  0.2835E+01  0.9996E+02
  18.600  0.2839E+01  0.9997E+02
  18.605  0.2843E+01  0.9999E+02
  18.610  0.2848E+01  0.1000E+03
  18.615  0.2852E+01  0.1000E+03
  18.620  0.2857E+01  0.1000E+03
  18.625  0.2861E+01  0.1000E+03
  18.630  0.2865E+01  0.1001E+03
  18.635  0.2870E+01  0.1001E+03
  18.640  0.2874E+01  0.1001E+03
  18.645  0.2877E+01  0.1001E+03
  18.650  0.2881E+01  0.1001E+03
  18.655  0.2884E+01  0.1001E+03
  18.660  0.2887E+01  0.1001E+03
  18.665  0.2889E+01  0.1002E+03
  18.670  0.2891E+01  0.1002E+03
  18.675  0.2893E+01  0.1002E+03
  18.680  0.2894E+01  0.1002E+03
  18.685  0.2895E+01  0.1002E+03
  18.690  0.2895E+01  0.1002E+03
  18.695  0.2895E+01  0.1002E+03
  18.700  0.2895E+01  0.1003E+03
  18.705  0.2894E+01  0.1003E+03
  18.710  0.2893E+01  0.1003E+03
  18.715  0.2891E+01  0.1003E+03
  18.720  0.2890E+01  0.1003E+03
  18.725  0.2887E+01  0.1003E+03
  18.730  0.2885E+01  0.1003E+03
  18.735  0.2883E+01  0.1004E+03
  18.740  0.2880E+01  0.1004E+03
  18.745  0.2878E+01  0.1004E+03
  18.750  0.2876E+01  0.1004E+03
  18.755  0.2873E+01  0.1004E+03
  18.760  0.2871E+01  0.1004E+03
  18.765  0.2870E+01  0.1004E+03
  18.770  0.2868E+01  0.1005E+03
  18.775  0.2867E+01  0.1005E+03
  18.780  0.2867E+01  0.1005E+03
  18.785  0.2867E+01  0.1005E+03
  18.790  0.2868E+01  0.1005E+03
  18.795  0.2869E+01  0.1005E+03
  18.800  0.2871E+01  0.1005E+03
  18.805  0.2874E+01  0.1006E+03
  18.810  0.2878E+01  0.1006E+03
  18.815  0.2883E+01  0.1006E+03
  18.820  0.2889E+01  0.1006E+03
  18.825  0.2896E+01  0.1006E+03
  18.830  0.2903E+01  0.1006E+03
  18.835  0.2912E+01  0.1006E+03
  18.840  0.2922E+01  0.1007E+03
  18.845  0.2933E+01  0.1007E+03
  18.850  0.2945E+01  0.1007E+03
  18.855  0.2958E+01  0.1007E+03
  18.860  0.2972E+01  0.1007E+03
  18.865  0.2987E+01  0.1007E+03
  18.870  0.3003E+01  0.1008E+03
  18.875  0.3020E+01  0.1008E+03
  18.880  0.3038E+01  0.1008E+03
  18.885  0.3056E+01  0.1008E+03
  18.890  0.3076E+01  0.1008E+03
  18.895  0.3096E+01  0.1008E+03
  18.900  0.3118E+01  0.1008E+03
  18.905  0.3139E+01  0.1009E+03
  18.910  0.3162E+01  0.1009E+03
  18.915  0.3185E+01  0.1009E+03
  18.920  0.3209E+01  0.1009E+03
  18.925  0.3233E+01  0.1009E+03
  18.930  0.3258E+01  0.1009E+03
  18.935  0.3283E+01  0.1010E+03
  18.940  0.3309E+01  0.1010E+03
  18.945  0.3334E+01  0.1010E+03
  18.950  0.3360E+01  0.1010E+03
  18.955  0.3386E+01  0.1010E+03
  18.960  0.3413E+01  0.1010E+03
  18.965  0.3439E+01  0.1011E+03
  18.970  0.3465E+01  0.1011E+03
  18.975  0.3492E+01  0.1011E+03
  18.980  0.3518E+01  0.1011E+03
  18.985  0.3544E+01  0.1011E+03
  18.990  0.3570E+01  0.1011E+03
  18.995  0.3596E+01  0.1012E+03
  19.000  0.3621E+01  0.1012E+03
  19.005  0.3646E+01  0.1012E+03
  19.010  0.3671E+01  0.1012E+03
  19.015  0.3695E+01  0.1012E+03
  19.020  0.3719E+01  0.1013E+03
  19.025  0.3742E+01  0.1013E+03
  19.030  0.3765E+01  0.1013E+03
  19.035  0.3787E+01  0.1013E+03
  19.040  0.3809E+01  0.1013E+03
  19.045  0.3829E+01  0.1013E+03
  19.050  0.3849E+01  0.1014E+03
  19.055  0.3868E+01  0.1014E+03
  19.060  0.3887E+01  0.1014E+03
  19.065  0.3904E+01  0.1014E+03
  19.070  0.3921E+01  0.1014E+03
  19.075  0.3936E+01  0.1015E+03
  19.080  0.3951E+01  0.1015E+03
  19.085  0.3965E+01  0.1015E+03
  19.090  0.3977E+01  0.1015E+03
  19.095  0.3989E+01  0.1015E+03
  19.100  0.4000E+01  0.1016E+03
  19.105  0.4009E+01  0.1016E+03
  19.110  0.4018E+01  0.1016E+03
  19.115  0.4025E+01  0.1016E+03
  19.120  0.4032E+01  0.1016E+03
  19.125  0.4037E+01  0.1017E+03
  19.130  0.4041E+01  0.1017E+03
  19.135  0.4044E+01  0.1017E+03
  19.140  0.4046E+01  0.1017E+03
  19.145  0.4047E+01  0.1017E+03
  19.150  0.4047E+01  0.1018E+03
  19.155  0.4046E+01  0.1018E+03
  19.160  0.4044E+01  0.1018E+03
  19.165  0.4041E+01  0.1018E+03
  19.170  0.4036E+01  0.1018E+03
  19.175  0.4031E+01  0.1019E+03
  19.180  0.4025E+01  0.1019E+03
  19.185  0.4018E+01  0.1019E+03
  19.190  0.4010E+01  0.1019E+03
  19.195  0.4002E+01  0.1019E+03
  19.200  0.3992E+01  0.1020E+03
  19.205  0.3982E+01  0.1020E+03
  19.210  0.3971E+01  0.1020E+03
  19.215  0.3960E+01  0.1020E+03
  19.220  0.3948E+01  0.1020E+03
  19.225  0.3935E+01  0.1021E+03
  19.230  0.3922E+01  0.1021E+03
  19.235  0.3908E+01  0.1021E+03
  19.240  0.3894E+01  0.1021E+03
  19.245  0.3879E+01  0.1021E+03
  19.250  0.3864E+01  0.1022E+03
  19.255  0.3849E+01  0.1022E+03
  19.260  0.3834E+01  0.1022E+03
  19.265  0.3819E+01  0.1022E+03
  19.270  0.3804E+01  0.1022E+03
  19.275  0.3789E+01  0.1023E+03
  19.280  0.3774E+01  0.1023E+03
  19.285  0.3759E+01  0.1023E+03
  19.290  0.3744E+01  0.1023E+03
  19.295  0.3730E+01  0.1023E+03
  19.300  0.3716E+01  0.1024E+03
  19.305  0.3703E+01  0.1024E+03
  19.310  0.3690E+01  0.1024E+03
  19.315  0.3678E+01  0.1024E+03
  19.320  0.3667E+01  0.1024E+03
  19.325  0.3656E+01  0.1024E+03
  19.330  0.3647E+01  0.1025E+03
  19.335  0.3638E+01  0.1025E+03
  19.340  0.3630E+01  0.1025E+03
  19.345  0.3623E+01  0.1025E+03
  19.350  0.3617E+01  0.1025E+03
  19.355  0.3612E+01  0.1026E+03
  19.360  0.3608E+01  0.1026E+03
  19.365  0.3605E+01  0.1026E+03
  19.370  0.3603E+01  0.1026E+03
  19.375  0.3602E+01  0.1026E+03
  19.380  0.3603E+01  0.1026E+03
  19.385  0.3604E+01  0.1027E+03
  19.390  0.3606E+01  0.1027E+03
  19.395  0.3609E+01  0.1027E+03
  19.400  0.3613E+01  0.1027E+03
  19.405  0.3618E+01  0.1027E+03
  19.410  0.3623E+01  0.1028E+03
  19.415  0.3629E+01  0.1028E+03
  19.420  0.3636E+01  0.1028E+03
  19.425  0.3643E+01  0.1028E+03
  19.430  0.3650E+01  0.1028E+03
  19.435  0.3658E+01  0.1028E+03
  19.440  0.3666E+01  0.1029E+03
  19.445  0.3674E+01  0.1029E+03
  19.450  0.3681E+01  0.1029E+03
  19.455  0.3689E+01  0.1029E+03
  19.460  0.3696E+01  0.1029E+03
  19.465  0.3702E+01  0.1030E+03
  19.470  0.3708E+01  0.1030E+03
  19.475  0.3713E+01  0.1030E+03
  19.480  0.3717E+01  0.1030E+03
  19.485  0.3721E+01  0.1030E+03
  19.490  0.3723E+01  0.1030E+03
  19.495  0.3724E+01  0.1031E+03
  19.500  0.3723E+01  0.1031E+03
  19.505  0.3721E+01  0.1031E+03
  19.510  0.3718E+01  0.1031E+03
  19.515  0.3713E+01  0.1031E+03
  19.520  0.3707E+01  0.1032E+03
  19.525  0.3698E+01  0.1032E+03
  19.530  0.3688E+01  0.1032E+03
  19.535  0.3677E+01  0.1032E+03
  19.540  0.3663E+01  0.1032E+03
  19.545  0.3648E+01  0.1033E+03
  19.550  0.3631E+01  0.1033E+03
  19.555  0.3612E+01  0.1033E+03
  19.560  0.3591E+01  0.1033E+03
  19.565  0.3569E+01  0.1033E+03
  19.570  0.3545E+01  0.1033E+03
  19.575  0.3520E+01  0.1034E+03
  19.580  0.3492E+01  0.1034E+03
  19.585  0.3464E+01  0.1034E+03
  19.590  0.3434E+01  0.1034E+03
  19.595  0.3403E+01  0.1034E+03
  19.600  0.3371E+01  0.1034E+03
  19.605  0.3337E+01  0.1035E+03
  19.610  0.3303E+01  0.1035E+03
  19.615  0.3268E+01  0.1035E+03
  19.620  0.3232E+01  0.1035E+03
  19.625  0.3196E+01  0.1035E+03
  19.630  0.3159E+01  0.1035E+03
  19.635  0.3122E+01  0.1036E+03
  19.640  0.3085E+01  0.1036E+03
  19.645  0.3047E+01  0.1036E+03
  19.650  0.3010E+01  0.1036E+03
  19.655  0.2972E+01  0.1036E+03
  19.660  0.2935E+01  0.1036E+03
  19.665  0.2898E+01  0.1036E+03
  19.670  0.2862E+01  0.1037E+03
  19.675  0.2826E+01  0.1037E+03
  19.680  0.2790E+01  0.1037E+03
  19.685  0.2755E+01  0.1037E+03
  19.690  0.2721E+01  0.1037E+03
  19.695  0.2687E+01  0.1037E+03
  19.700  0.2655E+01  0.1037E+03
  19.705  0.2622E+01  0.1038E+03
  19.710  0.2591E+01  0.1038E+03
  19.715  0.2560E+01  0.1038E+03
  19.720  0.2530E+01  0.1038E+03
  19.725  0.2501E+01  0.1038E+03
  19.730  0.2473E+01  0.1038E+03
  19.735  0.2445E+01  0.1038E+03
  19.740  0.2418E+01  0.1038E+03
  19.745  0.2392E+01  0.1039E+03
  19.750  0.2367E+01  0.1039E+03
  19.755  0.2342E+01  0.1039E+03
  19.760  0.2318E+01  0.1039E+03
  19.765  0.2295E+01  0.1039E+03
  19.770  0.2272E+01  0.1039E+03
  19.775  0.2250E+01  0.1039E+03
  19.780  0.2229E+01  0.1039E+03
  19.785  0.2209E+01  0.1039E+03
  19.790  0.2189E+01  0.1040E+03
  19.795  0.2170E+01  0.1040E+03
  19.800  0.2152E+01  0.1040E+03
  19.805  0.2135E+01  0.1040E+03
  19.810  0.2118E+01  0.1040E+03
  19.815  0.2102E+01  0.1040E+03
  19.820  0.2087E+01  0.1040E+03
  19.825  0.2073E+01  0.1040E+03
  19.830  0.2060E+01  0.1040E+03
  19.835  0.2049E+01  0.1041E+03
  19.840  0.2038E+01  0.1041E+03
  19.845  0.2028E+01  0.1041E+03
  19.850  0.2020E+01  0.1041E+03
  19.855  0.2012E+01  0.1041E+03
  19.860  0.2006E+01  0.1041E+03
  19.865  0.2002E+01  0.1041E+03
  19.870  0.1998E+01  0.1041E+03
  19.875  0.1997E+01  0.1041E+03
  19.880  0.1996E+01  0.1041E+03
  19.885  0.1997E+01  0.1042E+03
  19.890  0.2000E+01  0.1042E+03
  19.895  0.2003E+01  0.1042E+03
  19.900  0.2009E+01  0.1042E+03
  19.905  0.2016E+01  0.1042E+03
  19.910  0.2024E+01  0.1042E+03
  19.915  0.2034E+01  0.1042E+03
  19.920  0.2045E+01  0.1042E+03
  19.925  0.2058E+01  0.1042E+03
  19.930  0.2072E+01  0.1042E+03
  19.935  0.2087E+01  0.1043E+03
  19.940  0.2103E+01  0.1043E+03
  19.945  0.2121E+01  0.1043E+03
  19.950  0.2139E+01  0.1043E+03
  19.955  0.2159E+01  0.1043E+03
  19.960  0.2179E+01  0.1043E+03
  19.965  0.2200E+01  0.1043E+03
  19.970  0.2222E+01  0.1043E+03
  19.975  0.2245E+01  0.1043E+03
  19.980  0.2268E+01  0.1044E+03
  19.985  0.2291E+01  0.1044E+03
  19.990  0.2315E+01  0.1044E+03
  19.995  0.2339E+01  0.1044E+03
  20.000  0.2363E+01  0.1044E+03
  20.005  0.2387E+01  0.1044E+03
  20.010  0.2411E+01  0.1044E+03
  20.015  0.2435E+01  0.1044E+03
  20.020  0.2459E+01  0.1044E+03
  20.025  0.2483E+01  0.1045E+03
  20.030  0.2506E+01  0.1045E+03
  20.035  0.2529E+01  0.1045E+03
  20.040  0.2551E+01  0.1045E+03
  20.045  0.2573E+01  0.1045E+03
  20.050  0.2595E+01  0.1045E+03
  20.055  0.2615E+01  0.1045E+03
  20.060  0.2636E+01  0.1046E+03
  20.065  0.2656E+01  0.1046E+03
  20.070  0.2675E+01  0.1046E+03
  20.075  0.2694E+01  0.1046E+03
  20.080  0.2712E+01  0.1046E+03
  20.085  0.2729E+01  0.1046E+03
  20.090  0.2746E+01  0.1046E+03
  20.095  0.2763E+01  0.1046E+03
  20.100  0.2779E+01  0.1047E+03
  20.105  0.2795E+01  0.1047E+03
  20.110  0.2810E+01  0.1047E+03
  20.115  0.2825E+01  0.1047E+03
  20.120  0.2839E+01  0.1047E+03
  20.125  0.2854E+01  0.1047E+03
  20.130  0.2868E+01  0.1047E+03
  20.135  0.2881E+01  0.1048E+03
  20.140  0.2895E+01  0.1048E+03
  20.145  0.2908E+01  0.1048E+03
  20.150  0.2922E+01  0.1048E+03
  20.155  0.2935E+01  0.1048E+03
  20.160  0.2949E+01  0.1048E+03
  20.165  0.2962E+01  0.1048E+03
  20.170  0.2975E+01  0.1049E+03
  20.175  0.2989E+01  0.1049E+03
  20.180  0.3002E+01  0.1049E+03
  20.185  0.3016E+01  0.1049E+03
  20.190  0.3030E+01  0.1049E+03
  20.195  0.3043E+01  0.1049E+03
  20.200  0.3058E+01  0.1050E+03
  20.205  0.3072E+01  0.1050E+03
  20.210  0.3086E+01  0.1050E+03
  20.215  0.3101E+01  0.1050E+03
  20.220  0.3115E+01  0.1050E+03
  20.225  0.3130E+01  0.1050E+03
  20.230  0.3145E+01  0.1050E+03
  20.235  0.3160E+01  0.1051E+03
  20.240  0.3175E+01  0.1051E+03
  20.245  0.3191E+01  0.1051E+03
  20.250  0.3206E+01  0.1051E+03
  20.255  0.3221E+01  0.1051E+03
  20.260  0.3237E+01  0.1051E+03
  20.265  0.3253E+01  0.1052E+03
  20.270  0.3268E+01  0.1052E+03
  20.275  0.3284E+01  0.1052E+03
  20.280  0.3299E+01  0.1052E+03
  20.285  0.3315E+01  0.1052E+03
  20.290  0.3330E+01  0.1052E+03
  20.295  0.3345E+01  0.1053E+03
  20.300  0.3360E+01  0.1053E+03
  20.305  0.3375E+01  0.1053E+03
  20.310  0.3390E+01  0.1053E+03
  20.315  0.3404E+01  0.1053E+03
  20.320  0.3418E+01  0.1053E+03
  20.325  0.3431E+01  0.1054E+03
  20.330  0.3444E+01  0.1054E+03
  20.335  0.3457E+01  0.1054E+03
  20.340  0.3469E+01  0.1054E+03
  20.345  0.3480E+01  0.1054E+03
  20.350  0.3491E+01  0.1054E+03
  20.355  0.3501E+01  0.1055E+03
  20.360  0.3511E+01  0.1055E+03
  20.365  0.3520E+01  0.1055E+03
  20.370  0.3528E+01  0.1055E+03
  20.375  0.3535E+01  0.1055E+03
  20.380  0.3541E+01  0.1056E+03
  20.385  0.3547E+01  0.1056E+03
  20.390  0.3552E+01  0.1056E+03
  20.395  0.3556E+01  0.1056E+03
  20.400  0.3559E+01  0.1056E+03
